#Y dist(nm)	Y force(pN)
0.000000	0.544500
1.177767	0.461900
2.920267	0.276200
-2.464033	0.501200
3.979583	0.075400
3.900200	0.007200
-3.956367	0.456100
3.087750	-0.007800
-8.106733	0.614000
-20.365217	1.210000
-5.709233	0.339500
-8.387550	0.473100
-10.427767	0.570700
-3.860367	0.053200
-15.520667	0.712300
-15.970133	0.643100
-15.731517	0.637000
-7.283333	0.149300
-11.221517	0.366100
-13.972933	0.425300
-12.134600	0.248100
-25.957917	0.985000
-20.319817	0.715600
-17.116117	0.524200
-14.269783	0.345200
-6.746650	-0.191400
-7.218433	-0.249100
-18.715433	0.383600
-24.084150	0.679200
-20.530117	0.454600
-26.802383	0.720200
-30.101117	0.894100
-14.733250	-0.068700
-22.133417	0.379300
-19.562200	0.203100
-25.625367	0.535900
-30.326517	0.755500
-31.537133	0.824900
-26.648467	0.468400
-27.125383	0.488000
-24.770200	0.331800
-30.967167	0.700900
-25.006650	0.183300
-37.959167	0.921400
-34.014133	0.677300
-32.209067	0.581500
-31.344450	0.411300
-37.666550	0.750600
-25.488317	-0.058700
-35.588517	0.549100
-34.737267	0.484300
-39.149867	0.723400
-39.362100	0.642600
-45.127150	0.929700
-35.306083	0.340400
-40.585733	0.577400
-35.456567	0.256600
-37.452067	0.369100
-45.766733	0.852500
-35.087333	0.087200
-39.868750	0.350400
-48.336850	0.742800
-43.785483	0.474500
-37.267200	0.049200
-40.757067	0.236800
-45.839317	0.442600
-44.006117	0.322900
-49.791700	0.644100
-46.656650	0.431400
-57.031783	0.965000
-55.527833	0.819800
-41.152817	-0.077900
-50.068717	0.424900
-42.048133	-0.064000
-48.685467	0.298900
-48.852333	0.283100
-51.444733	0.398300
-60.092600	0.886800
-63.467717	1.027000
-52.000300	0.339900
-48.677417	0.106000
-48.509450	0.077700
-57.515517	0.482800
-61.311450	0.676800
-61.153100	0.650400
-60.322917	0.592900
-57.758717	0.436300
-54.866200	0.237300
-52.107317	-0.108200
-54.221633	-0.002800
-63.977133	0.543200
-57.854583	0.154100
-61.236433	0.271100
-59.564217	0.124900
-57.643933	-0.053500
-56.616900	-0.157200
-62.827300	0.192300
-69.718317	0.592300
-79.295317	1.006000
-76.451167	0.829000
-69.116750	0.401400
-66.140417	0.209500
-68.770433	0.334700
-67.336250	0.202200
-58.301283	-0.352000
-76.695767	0.694000
-74.416100	0.558000
-77.112950	0.716700
-74.755950	0.555900
-72.644700	0.301800
-75.862133	0.454400
-75.862017	0.412600
-77.661883	0.479600
-73.256650	0.226500
-76.002983	0.364700
-74.744967	0.124900
-82.985317	0.591700
-85.729733	0.729800
-86.715917	0.800800
-87.394150	0.769500
-81.200600	0.311400
-84.608350	0.504000
-91.020867	0.874600
-80.085767	0.215200
-81.415483	0.280100
-79.916333	0.131600
-83.163400	0.221700
-83.356833	0.193700
-81.423600	0.017700
-85.610350	0.238800
-83.475700	0.096000
-79.187683	-0.190600
-85.128667	0.005200
-91.854917	0.397600
-84.684867	-0.092300
-90.277733	0.222500
-92.885483	0.367400
-92.789633	0.362900
-92.077583	0.207500
-94.838550	0.339900
-89.278400	-0.024600
-93.283017	0.223900
-99.646950	0.493800
-98.916350	0.404400
-104.723300	0.686100
-99.134933	0.356900
-99.628400	0.402900
-102.232283	0.539900
-105.210483	0.650900
-117.347050	1.315200
-107.550067	0.721300
-100.515683	0.273800
-108.353367	0.725800
-106.521200	0.630900
-100.440050	0.247500
-110.782333	0.730400
-117.692083	1.135100
-115.796417	1.027000
-114.023350	0.917700
-107.712367	0.417400
-109.152383	0.464600
-115.633833	0.784400
-116.192833	0.819500
-115.052817	0.746800
-112.453183	0.566900
-108.695000	0.264900
-113.172767	0.512200
-114.652450	0.552900
-106.943400	0.069300
-116.302733	0.592700
-114.718917	0.508300
-114.442983	0.324200
-113.236833	0.239600
-115.299083	0.321200
-115.568167	0.337900
-113.605533	0.139100
-121.692400	0.519300
-114.284183	0.047900
-116.698733	0.134600
-112.843983	-0.123700
-121.573067	0.358300
-113.381950	-0.158400
-119.150283	0.065900
-120.999083	0.131600
-119.175083	-0.038200
-119.767933	-0.021100
-122.669750	0.158100
-126.668650	0.392400
-117.388383	-0.312700
-131.534167	0.512200
-138.729250	0.929100
-132.203767	0.558700
-130.509650	0.339900
-128.711717	0.178600
-130.413900	0.240300
-131.642333	0.332000
-116.857283	-0.539500
-121.575750	-0.299100
-135.423733	0.470000
-134.329917	0.320500
-129.943133	0.013700
-132.093000	0.089700
-131.525783	0.043400
-132.280583	0.087500
-133.996267	0.157300
-130.599567	-0.174800
-138.172350	0.275700
-140.985600	0.440400
-140.854200	0.396900
-144.904233	0.530000
-137.998700	0.109500
-135.157683	-0.093700
-142.406850	0.305100
-148.382750	0.675600
-138.525000	0.082200
-151.796500	0.746400
-151.079967	0.670300
-147.916500	0.426000
-142.435400	0.088200
-144.154217	0.142600
-145.211867	0.178600
-151.568350	0.511200
-152.495050	0.534600
-152.860967	0.528700
-150.900267	0.437500
-146.584350	0.052200
-153.217350	0.370500
-145.689883	-0.106900
-153.863983	0.347600
-159.675733	0.617900
-156.621683	0.497300
-153.239067	0.284800
-158.679167	0.553000
-162.827800	0.767400
-166.359633	0.935000
-158.026183	0.416600
-156.089800	0.272400
-155.262533	0.196700
-159.894283	0.345200
-161.745583	0.443900
-152.271933	-0.134200
-147.450183	-0.448900
-163.387700	0.357600
-161.642450	0.238800
-161.157833	0.130100
-162.174067	0.184600
-160.574267	0.073900
-155.500617	-0.237800
-166.226500	0.270600
-166.489800	0.242400
-166.942450	0.210900
-167.389717	0.224500
-168.214917	0.266500
-160.991983	-0.173500
-169.777183	0.179900
-176.034117	0.555700
-175.887750	0.559500
-174.338883	0.464600
-174.010967	0.355600
-177.539033	0.488300
-175.434867	0.337900
-171.519167	0.101800
-171.645167	0.099400
-170.827950	0.022200
-181.626300	0.635700
-183.130500	0.612300
-177.585533	0.263900
-174.391467	0.043000
-179.559250	0.339300
-173.406250	-0.038700
-178.421917	0.248500
-186.105300	0.549000
-188.416500	0.685800
-171.643233	-0.317200
-182.032850	0.304500
-183.940917	0.308800
-186.606383	0.409400
-178.625383	-0.153100
-175.013083	-0.353200
-182.884600	0.107400
-182.096000	0.016500
-183.762550	0.058800
-181.820200	-0.168300
-182.432317	-0.189800
-185.320383	-0.054700
-190.962117	0.267700
-191.711233	0.306500
-192.686333	0.295100
-199.755200	0.622500
-191.212183	0.103100
-189.459000	-0.017100
-192.014000	0.045000
-192.879633	0.020600
-199.482100	0.400800
-185.007767	-0.526400
-194.271883	0.027800
-199.532167	0.315400
-196.306433	0.111500
-206.614600	0.612000
-203.013033	0.377300
-216.384950	1.125900
-209.114183	0.682100
-199.051967	0.087100
-203.162850	0.326100
-204.622583	0.285500
-197.781983	-0.164500
-206.162150	0.318900
-202.501850	0.118500
-207.387617	0.429100
-207.711917	0.397600
-196.364850	-0.270300
-205.692067	0.284800
-206.639817	0.210400
-216.216933	0.628400
-214.514150	0.522000
-214.288150	0.452400
-208.898917	0.108400
-209.185683	0.106100
-206.804233	-0.055900
-213.672833	0.347000
-214.255550	0.341400
-217.730867	0.436900
-226.876017	0.959200
-222.253967	0.697000
-219.224667	0.510400
-210.067000	-0.164700
-213.063183	-0.019000
-214.138583	-0.046900
-210.334950	-0.272400
-208.127350	-0.417600
-212.160317	-0.185900
-215.911350	-0.027900
-219.679117	0.159100
-216.810533	-0.065500
-220.344767	0.135400
-219.485083	0.098600
-217.792517	-0.037700
-222.082367	0.064000
-220.151567	-0.062600
-244.057667	1.373200
-228.275683	0.389000
-224.265667	0.060400
-229.284700	0.251400
-234.639617	0.530800
-231.274967	0.305800
-226.691267	0.026500
-231.341200	0.282900
-229.280267	0.117400
-229.058700	-0.009000
-230.516717	0.040900
-237.003400	0.381900
-236.354183	0.317600
-233.312667	0.136600
-242.205900	0.646500
-237.631333	0.324800
-241.009883	0.527300
-229.851500	-0.148800
-234.366333	0.095300
-232.443917	-0.038900
-233.837300	0.049800
-239.601900	0.181500
-242.075100	0.320100
-242.839200	0.360600
-238.060900	0.050700
-242.793433	0.280100
-241.737283	0.196100
-237.964967	-0.058700
-239.833167	0.047500
-236.118100	-0.239100
-240.073600	-0.077100
-248.217333	0.352700
-243.372133	0.002900
-249.314400	0.345900
-247.282583	0.211400
-248.899333	0.251600
-248.678000	0.144600
-247.239033	0.027500
-256.814417	0.537700
-260.516267	0.751600
-263.350133	0.922100
-251.203200	0.188700
-256.461800	0.440700
-253.502667	0.237400
-248.191500	-0.121200
-247.814717	-0.179300
-243.030650	-0.490500
-252.432600	0.035700
-258.847650	0.336900
-265.053517	0.682600
-258.680650	0.248100
-258.374217	0.195400
-263.304117	0.463300
-257.887483	0.141500
-256.036667	-0.050300
-254.612767	-0.223100
-262.117850	0.198300
-258.439183	-0.013600
-256.087433	-0.209200
-261.667183	0.066200
-260.004983	-0.055900
-264.042600	0.112800
-260.074983	-0.144400
-256.186467	-0.406100
-259.826550	-0.205200
-254.819067	-0.476000
-262.522250	-0.042300
-252.188267	-0.621800
-260.998400	-0.107700
-258.008700	-0.313200
-260.746183	-0.164800
-261.551467	0.005500
-262.016967	0.033100
-259.957600	-0.097200
-267.781950	0.375300
-261.329783	0.084800
-260.706983	0.071000
-263.608683	0.290600
-263.078350	0.261900
-260.498067	0.091900
-260.061733	0.069800
-250.840833	-0.368200
-260.191117	0.199600
-259.665350	0.163800
-263.787033	0.408800
-262.379900	0.359100
-254.345167	-0.008600
-251.853217	-0.171800
-264.878267	0.657400
-259.614333	0.333800
-258.978333	0.311600
-253.828000	-0.009300
-258.317517	0.378400
-258.354200	0.391500
-253.098317	0.126400
-256.231717	0.315700
-250.214283	-0.053500
-257.889217	0.376600
-251.744333	0.101300
-252.676817	0.193600
-252.405150	0.237600
-260.166383	0.681500
-253.965267	0.326800
-257.586817	0.542500
-247.608133	0.030500
-255.895933	0.564200
-254.169850	0.492000
-256.365450	0.598200
-251.706133	0.371000
-250.012667	0.342700
-251.469133	0.456800
-253.409217	0.585700
-245.636117	0.121900
-243.547817	-0.015200
-252.435700	0.512100
-253.805733	0.737900
-255.401250	0.837300
-244.394233	0.228800
-250.762183	0.616100
-248.144350	0.451200
-245.500500	0.291000
-243.420483	0.333200
-244.125050	0.360600
-242.448133	0.249200
-244.684200	0.396300
-240.320400	0.237600
-245.891417	0.584200
-232.671267	-0.177200
-245.007583	0.551900
-244.523867	0.531400
-244.398583	0.508100
-234.374350	-0.007800
-243.418617	0.571000
-235.880517	0.103900
-241.418483	0.464600
-242.505367	0.522700
-232.321750	-0.084900
-239.026167	0.367600
-236.597983	0.296600
-237.597233	0.341900
-246.529417	0.864400
-247.274900	0.923100
-234.567900	0.301800
-231.663200	0.150000
-223.769483	-0.289000
-233.718117	0.289000
-237.419483	0.498200
-232.100650	0.166800
-231.895583	0.280100
-233.815217	0.403600
-226.512083	-0.051100
-226.316267	-0.077900
-223.275783	-0.196000
-230.672783	0.253400
-224.474200	-0.089400
-233.267517	0.427600
-224.492000	-0.102900
-234.847900	0.508800
-236.556400	0.717900
-232.884750	0.552300
-230.824450	0.471000
-230.701100	0.452700
-232.878783	0.586400
-227.237233	0.253400
-228.875100	0.404100
-226.273600	0.318600
-227.289533	0.399500
-223.073800	0.159300
-230.315233	0.588500
-228.127933	0.458600
-223.119483	0.167600
-223.999050	0.340800
-212.676850	-0.337500
-219.593717	0.073000
-223.046617	0.281200
-216.273517	-0.037700
-221.117033	0.293300
-220.131650	0.235800
-216.364333	0.020000
-222.219267	0.467500
-225.492800	0.650700
-210.843967	-0.187700
-223.647283	0.604100
-218.330083	0.324200
-218.863767	0.297700
-216.849267	0.181900
-220.390500	0.403500
-226.721533	0.820100
-226.957950	0.924000
-226.826633	0.971900
-229.340817	1.150900
-216.805967	0.446800
-218.052167	0.599200
-215.451000	0.482400
-212.691233	0.364400
-210.442667	0.230500
-212.369617	0.319300
-213.885433	0.423800
-220.614617	0.941200
-215.483183	0.620900
-216.530817	0.750100
-204.692133	0.024500
-206.901483	0.152300
-208.308017	0.233500
-201.740333	-0.037000
-212.948617	0.627700
-204.749250	0.147600
-207.713800	0.318600
-203.302150	0.146700
-205.579333	0.314300
-204.185100	0.279600
-209.581167	0.595600
-207.682467	0.468400
-203.357683	0.211400
-209.286783	0.622700
-205.911167	0.480400
-204.204050	0.391500
-208.027033	0.649400
-202.517083	0.314300
-195.589333	-0.109000
-204.923883	0.477500
-202.955067	0.386500
-206.383183	0.606500
-206.649933	0.656600
-208.621317	0.754300
-205.697317	0.592300
-209.652300	0.854700
-201.958883	0.494300
-199.725400	0.339300
-200.909350	0.416100
-207.475983	0.821600
-192.961900	0.120900
-195.486283	0.250700
-189.378833	-0.128200
-195.510583	0.272600
-190.626667	0.103900
-192.580017	0.199600
-192.834017	0.256300
-198.696167	0.627100
-194.475533	0.423800
-195.491783	0.477200
-192.447883	0.329000
-198.521967	0.693700
-194.436250	0.555000
-192.007483	0.413300
-190.583600	0.344400
-197.131850	0.724800
-191.935717	0.465400
-187.985217	0.265300
-184.582967	0.081400
-192.337733	0.558200
-193.604050	0.645900
-193.347200	0.627600
-195.702533	0.778700
-189.087883	0.421100
-186.631133	0.291200
-188.183567	0.417400
-184.884000	0.232800
-189.713500	0.516900
-196.517467	0.925900
-203.307317	1.483300
-195.521600	1.049700
-195.030417	1.037500
-178.539917	0.084100
-185.431350	0.519300
-185.517567	0.619000
-180.519017	0.397600
-181.540300	0.446100
-183.365467	0.527500
-190.849583	0.983600
-182.672283	0.546200
-177.173617	0.325300
-183.965867	0.750100
-178.786050	0.447600
-176.803950	0.343500
-182.925033	0.716600
-177.232733	0.395900
-170.971100	0.118200
-175.205900	0.375900
-171.431733	0.151100
-176.428383	0.432800
-175.726167	0.506800
-174.955533	0.475100
-177.410833	0.664400
-170.832583	0.250700
-173.428817	0.387700
-168.655633	0.113600
-168.281533	0.208100
-168.904917	0.279400
-160.062467	-0.252800
-164.804133	0.020000
-177.551600	0.778500
-168.335367	0.212500
-176.865100	0.796200
-174.009633	0.653300
-176.815583	0.836600
-171.264650	0.513000
-171.677367	0.551500
-166.995050	0.310200
-166.099267	0.262900
-164.192200	0.157800
-167.861617	0.390100
-162.181367	0.020800
-173.282367	0.735400
-164.177367	0.305200
-163.771833	0.326600
-163.298583	0.336800
-164.229667	0.397600
-168.858033	0.684800
-164.298117	0.436300
-157.771483	0.172100
-163.567750	0.552300
-157.848933	0.206900
-157.255650	0.183900
-154.988000	0.208800
-164.473250	0.771300
-161.922850	0.635400
-163.835883	0.737900
-159.010600	0.635400
-156.969583	0.489200
-158.452183	0.610400
-162.330333	0.868400
-157.455417	0.594700
-150.226150	0.180600
-152.295333	0.288200
-154.053300	0.383400
-147.933517	0.051400
-146.587100	0.068400
-148.679233	0.187100
-149.620767	0.218500
-145.789467	0.001300
-147.935683	0.234200
-141.712700	-0.148800
-155.454567	0.738100
-153.924433	0.667700
-142.900767	0.018700
-151.183733	0.477500
-147.982100	0.416700
-148.776133	0.486800
-148.669400	0.534000
-143.991017	0.270100
-143.346367	0.207400
-149.503550	0.567900
-135.437500	-0.166200
-140.020567	0.103900
-139.579800	0.066000
-146.177550	0.458100
-141.749367	0.260500
-142.572517	0.364300
-134.508600	-0.095400
-139.115467	0.184300
-134.456950	-0.087900
-142.385067	0.365500
-141.192133	0.324200
-138.846417	0.318100
-140.527517	0.427000
-137.762367	0.285700
-137.276317	0.244600
-135.966417	0.236800
-134.650417	0.158200
-144.569200	0.785700
-137.376817	0.350800
-138.389050	0.440700
-141.567083	0.634700
-141.602433	0.664400
-132.958133	0.160700
-131.925000	0.173100
-138.160933	0.575900
-135.243050	0.392700
-133.255633	0.291500
-138.786417	0.771100
-140.697833	0.911000
-136.754867	0.694000
-135.329267	0.602200
-137.108450	0.869700
-139.119917	1.012300
-137.039500	0.916500
-128.143050	0.405000
-126.323483	0.298400
-137.352483	0.971600
-128.001667	0.401800
-125.669517	0.259900
-126.614700	0.314400
-123.939433	0.218300
-121.201900	0.061200
-131.484483	0.677000
-135.370000	0.923100
-130.488050	0.762300
-123.236767	0.374500
-123.225317	0.393400
-121.082083	0.274400
-111.490833	-0.290200
-123.529017	0.416500
-117.249917	0.137500
-131.076700	1.001400
-116.194483	0.149300
-119.252617	0.342700
-125.853683	0.726500
-127.573750	0.852000
-126.395783	0.922100
-116.622300	0.350700
-120.290950	0.572700
-116.840600	0.350700
-120.597917	0.685300
-115.295683	0.426500
-124.163433	0.985700
-125.656850	1.124400
-123.803367	1.022500
-118.591667	0.721600
-121.631267	0.915100
-121.658917	0.963100
-120.078500	0.905100
-116.756317	0.722800
-124.134183	1.177400
-120.123283	1.088600
-119.225017	1.051000
-118.186667	1.058500
-109.749167	0.539500
-103.113033	0.151100
-104.095367	0.203200
-103.885817	0.288700
-116.356733	1.046600
-106.449750	0.491100
-109.541983	0.699500
-108.242433	0.620900
-105.475300	0.458100
-120.370917	1.394200
-106.658233	0.560900
-107.774650	0.635700
-100.760217	0.214000
-105.771867	0.601000
-100.582183	0.423200
-98.685033	0.340700
-101.992050	0.546000
-97.996067	0.305800
-100.235300	0.433800
-105.123283	0.730700
-105.666333	0.887000
-100.381733	0.575900
-108.342800	1.092600
-103.974917	0.838900
-99.639083	0.575900
-96.917967	0.423400
-101.151517	0.783100
-99.599150	0.717600
-93.779167	0.400600
-87.822767	0.047500
-98.557633	0.667700
-96.802367	0.570100
-97.116850	0.736800
-98.289133	0.812300
-92.548450	0.471000
-93.132967	0.526600
-98.130150	0.889800
-96.521600	0.884100
-92.292150	0.640500
-103.438567	1.324900
-93.503017	0.727600
-90.298250	0.543600
-90.860017	0.608200
-91.396750	0.774600
-99.648183	1.282700
-86.154833	0.507800
-92.733317	0.925900
-89.488367	0.726100
-94.475617	1.022500
-86.012350	0.665100
-92.740733	1.077500
-87.526683	0.770000
-87.543283	0.759800
-90.742633	1.009100
-88.795183	0.920900
-89.438950	1.011300
-83.692417	0.682600
-78.614700	0.390600
-86.896333	0.880100
-85.501367	0.901900
-86.167867	0.962200
-91.926867	1.326400
-85.846583	0.998600
-91.532900	1.335000
-82.103217	0.786400
-79.264833	0.671300
-78.405567	0.712900
-75.141883	0.529100
-77.574283	0.710600
-72.064067	0.378100
-77.452867	0.701800
-76.269600	0.638100
-74.311733	0.647000
-78.617133	0.887600
-73.714967	0.600100
-74.299867	0.642400
-74.127300	0.757800
-80.105583	1.127000
-73.281900	0.746100
-79.675383	1.125500
-59.726550	-0.060000
-70.085667	0.538900
-73.007333	0.824000
-73.693933	0.901700
-68.794333	0.667700
-63.014933	0.313700
-74.872417	1.007500
-71.132683	0.787100
-60.894250	0.240300
-69.451883	0.728000
-69.337300	0.738900
-74.201217	1.070500
-66.273567	0.642400
-66.672333	0.790700
-66.173300	0.768000
-64.035200	0.684000
-67.124817	0.868900
-66.296117	0.828700
-61.740767	0.560200
-59.258100	0.468000
-72.778283	1.285100
-60.851233	0.637700
-62.469233	0.758600
-66.222250	0.990000
-64.597783	0.899000
-55.548550	0.500400
-57.770250	0.645900
-59.521350	0.757800
-55.269167	0.505300
-51.841050	0.408900
-54.154417	0.581500
-50.873817	0.429100
-54.438283	0.648200
-60.462400	1.010100
-59.823317	0.995500
-58.574117	0.977200
-57.878983	1.009100
-59.269083	1.095800
-55.045050	0.873900
-50.721500	0.625800
-57.139750	0.981000
-53.128600	0.780900
-45.792600	0.432600
-43.205783	0.303200
-50.912767	0.759100
-42.945350	0.267000
-46.890950	0.555600
-46.533867	0.552700
-46.869200	0.595200
-42.278633	0.324800
-59.076350	1.344000
-50.518050	0.847200
-42.752350	0.475800
-42.842950	0.534600
-48.828533	0.943100
-45.775050	0.744900
-43.544850	0.615600
-49.743367	0.994900
-46.089800	0.865800
-34.606167	0.245500
-40.414533	0.578900
-39.036867	0.514300
-35.110883	0.343700
-40.398917	0.709000
-32.907217	0.264700
-40.831633	0.731900
-39.794517	0.671800
-40.151183	0.708800
-37.677700	0.625500
-37.000000	0.731400
-34.506983	0.592100
-36.438533	0.723800
-38.457717	0.846100
-38.465883	0.857900
-39.631967	0.918100
-35.034500	0.802200
-29.994833	0.497600
-25.481417	0.214000
-35.736350	0.843000
-35.535783	0.944600
-31.605767	0.726100
-29.302667	0.631000
-30.222750	0.675300
-29.412183	0.632900
-30.654283	0.715100
-34.518300	0.990300
-33.728883	0.953600
-33.784567	0.976900
-31.811483	0.930500
-30.829400	0.876900
-26.748833	0.649400
-27.591750	0.727200
-28.438383	0.890600
-35.038750	1.306200
-24.028367	0.691300
-25.482367	0.766900
-23.598550	0.664200
-31.343800	1.128900
-22.683483	0.734600
-25.603367	0.918400
-21.164367	0.661000
-21.004133	0.646700
-26.018317	1.082500
-28.818383	1.268300
-24.403250	1.089900
-31.470967	1.517200
-18.988650	0.776700
-22.965517	1.005400
-17.954000	0.838200
-10.617217	0.408100
-3.269467	-0.069200
-2.996367	-0.080000
-16.080017	0.712300
-15.559717	0.700600
-16.379817	0.764800
-18.089750	0.909000
-22.089317	1.160800
-19.004600	0.990300
-16.783883	0.880100
-15.237267	0.907000
-17.771250	1.113900
-22.643600	1.479000
-21.875500	1.421700
-23.715100	1.542900
-8.545967	0.660700
-9.221683	0.750800
-12.555717	0.950800
