#Y dist(nm)	Y force(pN)
4038.055067	20.122300
4059.859633	18.848700
4066.277650	18.541400
4065.402117	18.621700
4053.837200	19.372400
4065.883900	18.657500
4065.177433	18.691200
4062.896417	18.852700
4059.371800	19.239500
4063.704500	19.041800
4057.620850	19.517900
4063.141967	19.209700
4063.486700	19.224800
4062.727483	19.271100
4071.773567	18.946600
4062.488983	19.498200
4066.232517	19.321600
4064.801817	19.421800
4064.819733	19.567200
4064.581633	19.657200
4081.597800	18.710300
4069.393267	19.452700
4067.921167	19.594300
4072.126717	19.349800
4070.135517	19.502800
4074.621867	19.321000
4072.611367	19.482100
4074.844750	19.412000
4076.083000	19.344500
4075.493850	19.390100
4074.638167	19.497700
4070.687100	19.878200
4085.716150	18.993800
4077.223783	19.533000
4081.981233	19.311900
4079.658700	19.608500
4083.181533	19.437000
4087.700267	19.236700
4083.085533	19.530600
4085.422583	19.424100
4087.811317	19.294600
4091.654850	19.227200
4086.856367	19.551100
4095.502150	19.114400
4090.474283	19.408200
4091.197850	19.381400
4093.128317	19.283500
4105.012933	18.744600
4097.733383	19.199400
4091.705067	19.562800
4093.062517	19.492900
4089.956517	19.763200
4090.868000	19.835000
4096.925533	19.517400
4094.766800	19.694000
4100.827633	19.355100
4090.036700	20.016500
4088.092883	20.196600
4094.267717	19.963300
4108.154700	19.159400
4095.086417	20.000200
4097.441400	19.874300
4107.290033	19.283700
4103.853700	19.489400
4099.591100	19.823300
4103.466000	19.601000
4102.652017	19.695700
4096.417150	20.094800
4111.986833	19.230900
4102.493900	19.833800
4117.309900	19.033100
4108.686400	19.584500
4105.352567	19.849600
4111.124533	19.525500
4112.178933	19.682400
4114.003617	19.629700
4113.856467	19.674700
4115.940800	19.553000
4115.983783	19.635300
4114.758417	19.842400
4109.712767	20.182600
4115.301150	19.880000
4123.154767	19.399900
4120.378933	19.585800
4117.227317	19.807900
4119.219100	19.846100
4114.818450	20.146100
4119.477133	19.907400
4115.399133	20.162100
4128.929700	19.367000
4126.874667	19.502500
4129.225683	19.540800
4133.682700	19.314800
4122.318933	19.971900
4124.310133	19.899300
4138.016633	19.232100
4134.329150	19.510400
4136.884133	19.405500
4131.972317	19.723300
4132.005150	19.758200
4126.600083	20.101800
4121.208533	20.609700
4129.979650	20.107700
4140.537833	19.497300
4132.621167	19.975900
4137.422733	19.800900
4140.156233	19.709700
4137.363167	19.935700
4137.436400	19.990700
4147.241733	19.416000
4143.194783	19.667100
4146.097300	19.537100
4145.153800	19.738100
4149.502200	19.502300
4144.847083	19.858800
4134.111867	20.521900
4140.726033	20.145300
4146.885000	19.784600
4148.337433	19.865100
4148.157533	19.897800
4153.430333	19.576200
4145.280133	20.052600
4151.400533	19.852800
4147.258550	20.162900
4153.451933	19.870500
4149.691967	20.093200
4150.585883	20.010000
4150.685750	20.020700
4156.177083	19.820700
4159.132933	19.726800
4151.741217	20.234200
4152.367783	20.200500
4150.793050	20.327900
4156.930717	19.960300
4151.663400	20.188700
4149.505067	20.339800
4158.570333	19.781700
4158.474600	19.804100
4162.620550	19.527200
4156.107183	19.827900
4157.399767	19.753900
4159.354550	19.595600
4158.517083	19.633800
4158.211667	19.627000
4160.430117	19.503100
4164.750783	19.257000
4159.246200	19.571600
4160.872767	19.486900
4157.866433	19.667700
4155.760683	19.590000
4154.294483	19.698600
4151.552850	19.902200
4146.651817	20.197900
4150.293333	19.985400
4150.311783	19.989000
4146.828233	20.232600
4155.124550	19.737200
4151.684533	19.739400
4151.203900	19.703300
4148.930917	19.845400
4158.169350	19.295600
4147.952467	19.812400
4148.144833	19.758000
4151.205033	19.589100
4150.651450	19.619000
4152.002000	19.557200
4150.304833	19.659900
4150.316833	19.572600
4154.853400	19.130000
4153.527033	19.158300
4153.355750	19.191800
4147.342133	19.553400
4151.453567	19.310500
4156.171433	19.027800
4148.100467	19.521700
4139.837217	20.034100
4152.000833	19.332600
4143.142400	19.814600
4141.361883	19.593300
4148.105767	19.180000
4137.676300	19.797500
4139.827067	19.669600
4139.011117	19.594300
4138.395400	19.630100
4142.812133	19.394400
4138.033233	19.677600
4144.111917	19.265200
4144.934433	19.206900
4153.864117	18.677500
4143.459717	19.301800
4148.658550	19.012100
4139.011683	19.596900
4144.397533	19.090800
4131.765333	19.833600
4131.573750	19.835600
4128.387200	20.030300
4128.603767	19.867000
4132.904500	19.598900
4137.809233	19.311900
4132.498900	19.609400
4133.983467	19.443400
4128.225583	19.701300
4133.502300	19.381700
4127.682400	19.751000
4127.803917	19.728400
4130.583700	19.444400
4127.476550	19.623200
4131.377083	19.403400
4130.614583	19.455300
4130.925833	19.444200
4118.060500	20.228600
4119.939650	20.145800
4127.086917	19.727200
4125.968650	19.799600
4131.474100	19.467800
4127.953550	19.374800
4127.511550	19.298900
4130.593783	19.077300
4125.769400	19.359800
4121.242617	19.623700
4128.470200	19.202000
4124.901350	19.420700
4120.725467	19.666600
4128.200333	19.129800
4125.147567	19.213000
4119.760467	19.516000
4122.222600	19.376000
4123.078350	19.315100
4117.432100	19.498400
4110.837050	19.899200
4115.112617	19.668400
4115.099933	19.679100
4117.716450	19.347800
4111.009633	19.755600
4113.655183	19.617600
4108.821367	19.934500
4118.232750	19.346000
4117.640050	19.347800
4120.591967	19.171600
4120.483550	19.143200
4105.543867	19.885900
4111.202683	19.527900
4108.604350	19.690700
4112.612417	19.439800
4113.199083	19.299600
4110.539400	19.396100
4120.420133	18.785100
4116.462383	19.010100
4114.425683	19.142400
4111.762733	19.287600
4109.711233	19.405500
4117.791133	18.906900
4116.172917	19.003900
4111.310500	19.284500
4116.956000	18.912500
4103.049500	19.354700
4108.329067	19.040800
4103.841517	19.300600
4106.247233	19.162500
4108.466083	18.886800
4105.680150	19.058600
4100.416117	19.386400
4097.197600	19.595600
4101.710767	19.157200
4102.715483	19.099500
4101.743083	19.160700
4093.052533	19.687800
4091.569067	19.680700
4099.819533	19.145100
4097.931283	19.249500
4093.635517	19.509700
4094.957900	19.418600
4104.016200	18.881000
4097.876367	19.269100
4102.101600	19.022900
4095.200450	19.434500
4099.221767	19.198600
4097.595917	18.922900
4088.582000	19.466600
4097.034033	18.962700
4096.312367	19.000300
4097.683483	18.881700
4097.964383	18.744000
4099.672683	18.645000
4098.136933	18.710700
4096.223383	18.834300
4081.929750	19.689500
4090.625217	19.190800
4088.818800	19.305500
4086.969517	19.428700
4089.848967	19.134700
4080.524800	19.683500
4083.314433	19.524600
4086.137983	19.345200
4090.111817	19.083400
4088.583700	19.182200
4085.640217	19.165000
4080.793867	19.399900
4074.257400	19.802000
4078.047100	19.586600
4080.445733	19.444200
4086.277017	19.098700
4081.303283	19.263900
4084.574200	19.043900
4078.742250	19.372400
4082.850117	19.105600
4081.849583	19.085100
4080.262250	19.143200
4078.622850	19.219700
4076.063417	19.368400
4070.840217	19.672600
4076.265083	19.346400
4078.917517	19.106500
4070.899667	19.438600
4068.792250	19.532000
4067.939300	19.559000
4069.698617	19.433500
4071.948883	19.155000
4075.402050	18.921200
4075.675033	18.867000
4070.975333	19.129800
4070.636167	19.134700
4075.179333	18.852000
4061.724467	19.448800
4057.457150	19.712300
4063.790550	19.326800
4072.802700	18.798500
4068.031967	19.102600
4073.428833	18.775500
4066.365667	19.145500
4066.430267	19.114900
4068.228050	18.998600
4069.084933	18.935400
4070.858500	18.802700
4068.939083	18.939600
4074.646450	18.594800
4068.783617	18.938200
4061.366200	19.212500
4067.961350	18.581000
4068.315067	18.552100
4058.716267	19.138300
4063.483550	18.849500
4070.308983	18.296700
4054.607433	19.220700
4055.392367	19.172200
4057.153500	19.063100
4060.921650	18.683600
4054.379367	19.006900
4049.113183	19.303200
4053.084933	19.071900
4057.099400	18.855500
4066.050217	18.316900
4047.682683	19.401300
4061.988950	18.545300
4051.416283	19.185900
4052.790067	19.106800
4049.137550	19.220900
4052.501850	18.953300
4049.407667	19.127500
4059.104533	18.548400
4059.793233	18.465600
4052.383350	18.878900
4055.303367	18.673600
4054.779133	18.680400
4050.832383	18.785100
4051.074950	18.652400
4052.955917	18.519100
4046.450350	18.751400
4044.185617	18.857200
4040.502967	19.079500
4043.218200	18.902000
4045.897483	18.738900
4050.383283	18.473400
4042.305783	18.765000
4045.797750	18.509300
4045.919600	18.503900
4041.945650	18.740900
4046.075500	18.470600
4042.823850	18.661400
4035.492333	19.128300
4045.583417	18.544600
4051.202233	18.201900
4046.482417	18.466300
4031.844350	19.024100
4039.011883	18.537900
4040.370933	18.444600
4041.735450	18.365000
4043.907100	18.242000
4033.536533	18.853200
4038.374200	18.576800
4036.754617	18.674500
4039.628683	18.411000
4026.109300	19.085300
4028.633133	18.864600
4035.241183	18.408300
4031.510933	18.637500
4037.136767	18.301900
4032.857117	18.570100
4036.248217	18.380800
4031.048117	18.635500
4025.172833	18.924300
4026.664417	18.819700
4030.648200	18.589400
4033.221667	18.431800
4024.965950	18.902000
4022.183467	19.078900
4030.669500	18.561500
4019.549833	19.219500
4032.364100	18.195200
4025.824017	18.498100
4019.858700	18.828500
4027.224950	18.378800
4024.990250	18.494000
4022.664783	18.634800
4021.898767	18.677500
4029.009500	18.262700
4022.519650	18.643700
4014.848167	19.120900
4023.408233	18.402300
4018.057783	18.607200
4024.011383	18.237600
4029.818417	17.880400
4022.696783	18.298800
4016.698583	18.652500
4014.948750	18.756500
4018.246683	18.561000
4020.172083	18.410700
4021.933767	18.176800
4020.706233	18.237600
4026.018767	17.907400
4023.293850	18.062000
4016.661333	18.440400
4019.175017	18.260500
4013.186367	18.521500
4011.867650	18.576800
4013.670233	18.439200
4017.797533	18.170700
4012.814050	18.283700
4012.637350	18.230600
4016.873200	17.947400
4013.173300	18.164900
4010.267517	18.329200
4015.920633	17.964000
4000.700767	18.660700
3999.051650	18.738800
4008.455750	18.195200
4003.211000	18.523700
3998.791700	18.740900
3998.230267	18.745300
4002.228833	18.471900
4003.063383	18.438600
4003.446050	18.410600
4002.210917	18.475000
4005.634650	18.236600
3999.548533	18.527400
3998.835267	18.553600
3998.711217	18.552100
3998.881350	18.533900
4001.742650	18.351800
4002.841600	18.285200
4000.132917	18.427300
3997.674000	18.563900
3999.490700	18.435500
3998.754033	18.467700
3992.007300	18.697700
3995.668283	18.462300
4001.537550	18.056900
3996.801183	18.300000
3998.003833	18.210900
3999.346517	18.107200
3988.769517	18.559900
3996.748483	18.027300
3989.124283	18.444600
3991.734750	18.289400
3989.496933	18.414600
3984.675567	18.685000
3991.594817	18.255100
3991.344667	18.305800
3985.857917	18.654700
3984.291383	18.733500
3984.376650	18.545300
3991.624000	18.100100
3983.379783	18.571500
3989.010883	18.196500
3992.516983	17.883600
3981.258100	18.447200
3992.623483	17.727900
3987.660900	18.002900
3986.258333	18.056100
3986.590217	17.899900
3985.889950	17.924000
3982.241483	18.104700
3981.612167	18.140200
3989.512717	17.656000
3986.666033	17.815200
3979.832317	18.184000
3984.864517	17.878300
3973.562050	18.262100
3976.607950	18.035900
3973.826500	18.186800
3976.810150	18.011000
3972.445433	18.278100
3975.856333	18.083700
3976.493283	18.026100
3971.214567	18.335500
3975.960533	18.036900
3974.958417	18.103600
3973.803500	18.070400
3972.012700	18.093200
3970.235733	18.174000
3976.648067	17.786500
3969.495517	18.140200
3968.018133	18.150600
3965.045183	18.337800
3970.838550	17.970800
3976.382317	17.571700
3959.714867	18.462100
3970.384117	17.797300
3974.073933	17.598000
3974.541100	17.525000
3965.620517	17.921500
3961.559050	18.158000
3956.595400	18.401900
3961.315033	18.090300
3956.516217	18.376900
3953.339850	18.576800
3963.396250	17.897600
3969.144483	17.508900
3955.597350	18.300500
3961.845250	17.922500
3961.805067	17.897800
3964.302417	17.743300
3960.064383	17.800500
3957.455267	17.931400
3954.044183	18.121500
3954.360950	18.092300
3953.105233	18.081300
3948.482333	18.276300
3950.643683	18.150600
3948.709117	18.267700
3949.667100	18.231500
3955.230800	17.923100
3962.359083	17.445300
3954.057067	17.758600
3950.120783	18.014700
3956.329517	17.633500
3960.706917	17.372500
3947.326283	18.103500
3949.017167	17.983300
3951.590400	17.787200
3947.261683	18.035100
3948.740217	17.920000
3957.572583	17.376900
3934.326267	18.619900
3949.585783	17.720100
3952.011467	17.529700
3948.384100	17.739500
3948.260000	17.607200
3943.912583	17.806800
3936.830800	18.234800
3941.150750	17.957900
3939.628250	18.066800
3945.029700	17.734400
3943.732950	17.699600
3946.534883	17.406000
3938.551950	17.892800
3937.500233	17.956800
3935.146350	18.085700
3931.384650	18.316100
3937.440083	17.949000
3939.784117	17.728600
3930.993750	18.259700
3945.094667	17.402500
3936.903083	17.903700
3943.111450	17.300900
3933.024450	17.858600
3940.436317	17.391400
3934.333317	17.744800
3930.483467	17.965300
3935.975450	17.632700
3940.647400	17.256800
3935.130500	17.581400
3938.623433	17.345100
3941.738500	17.134400
3931.622000	17.622200
3933.877200	17.421200
3921.237950	18.160700
3923.284033	18.044100
3932.270367	17.508700
3934.561817	17.381500
3928.774617	17.584000
3924.470850	17.744600
3927.733583	17.538300
3926.919983	17.589300
3926.817517	17.591500
3920.995050	17.807900
3918.933333	17.938200
3920.672133	17.829000
3924.905117	17.595100
3923.389650	17.701100
3923.268467	17.698000
3912.528367	18.154600
3913.978250	18.077000
3918.652600	17.802800
3922.586867	17.557300
3914.921833	18.026400
3919.110650	17.777900
3925.311133	17.171100
3917.465183	17.631900
3914.049367	17.835100
3908.248217	18.176800
3910.780433	17.954400
3912.857050	17.763500
3913.147767	17.750200
3915.406917	17.619100
3919.643250	17.372300
3920.480933	17.300700
3907.124550	17.873900
3908.845433	17.790000
3910.000767	17.702200
3910.679633	17.641500
3912.589883	17.497500
3915.682867	17.175700
3911.044483	17.443200
3915.652817	17.191300
3909.464950	17.575400
3917.370117	17.113900
3908.057133	17.613900
3906.284617	17.554000
3907.659867	17.451400
3907.370767	17.473000
3906.682483	17.511300
3912.258300	17.167400
3909.463283	17.353500
3899.835833	17.688600
3897.438617	17.812600
3903.808333	17.397000
3900.554383	17.591400
3899.560083	17.506800
3898.519900	17.539400
3902.279300	17.276000
3901.738867	17.319700
3903.189017	17.257900
3902.600950	17.294900
3895.759733	17.627400
3899.307667	17.414200
3898.436200	17.486600
3899.674433	17.399400
3900.452733	17.262300
3898.163333	17.297700
3892.814617	17.602000
3895.882167	17.395300
3900.628967	17.097700
3893.159667	17.523400
3898.709550	17.171900
3893.158450	17.275100
3885.822383	17.688900
3890.951467	17.388100
3890.078700	17.462900
3892.547950	17.155400
3889.108083	17.315700
3889.075317	17.321500
3876.659183	18.062100
3888.339850	17.367800
3888.078867	17.355700
3886.747117	17.324500
3889.909000	17.105600
3873.880050	18.028700
3885.879083	17.322300
3886.456600	17.307500
3890.274500	17.074100
3894.049617	16.730500
3885.720200	17.234600
3881.789017	17.451100
3874.561667	17.893000
3878.923033	17.556000
3885.199850	17.092100
3873.773967	17.760700
3875.612267	17.663500
3878.006767	17.524900
3880.060917	17.356600
3878.344083	17.418300
3882.611100	16.974200
3879.853917	17.118700
3871.654517	17.598700
3871.576450	17.611700
3869.653133	17.609100
3868.051367	17.674000
3873.820333	17.315400
3864.265367	17.879200
3878.204983	17.051700
3878.678517	17.002600
3878.640417	16.894300
3868.680200	17.441600
3867.412933	17.510700
3881.414567	16.643800
3871.125750	17.236700
3867.674717	17.455900
3869.390400	17.176400
3869.118600	17.115800
3869.971667	17.062000
3866.867917	17.238100
3865.995950	17.263400
3864.173200	17.252000
3863.275950	17.286500
3863.714367	17.253100
3866.087950	17.110100
3863.976283	17.242200
3865.309667	17.134900
3863.385367	17.259100
3863.076750	17.293100
3865.876767	17.110000
3860.731233	17.400900
3862.069500	17.221100
3860.304417	17.297800
3863.352717	17.071900
3853.209483	17.677500
3862.393167	17.107000
3867.444717	16.804000
3852.813633	17.446500
3862.772850	16.818200
3861.491983	16.865100
3859.373033	16.966200
3853.447733	17.191500
3849.640600	17.362400
3842.425383	17.779500
3860.897883	16.671300
3858.135467	16.804000
3848.120350	17.384000
3856.651350	16.687100
3848.735483	17.097000
3856.149000	16.625600
3845.840233	17.225400
3852.730100	16.808900
3849.887817	16.970200
3848.060633	16.856400
3839.266550	17.384900
3837.742950	17.466500
3840.464483	17.321100
3846.998100	16.880900
3839.904433	17.193300
3832.564750	17.632700
3839.325817	17.230000
3848.153150	16.747100
3841.695467	17.118700
3843.411900	17.013800
3840.757067	16.939000
3840.389233	16.958700
3838.083700	17.092100
3845.603583	16.657800
3837.293583	16.997100
3846.235450	16.435400
3857.925683	15.728700
3834.451500	17.121800
3837.437900	16.967000
3834.212600	17.168900
3835.288150	16.941200
3833.028183	16.991100
3819.771400	17.763800
3833.215350	16.967900
3834.591933	16.886100
3832.852883	16.977900
3824.651883	17.365800
3822.460500	17.374400
3824.672433	17.238300
3822.176383	17.407500
3822.259917	17.380900
3829.530950	16.880000
3824.843800	17.143400
3820.401183	17.398800
3821.888317	17.316700
3830.535200	16.785500
3828.495950	16.916900
3820.543300	17.185100
3817.551233	17.351100
3822.509950	17.058200
3828.034500	16.720700
3819.504167	17.097700
3822.320150	16.870700
3817.468067	17.127400
3816.463133	17.181600
3825.744017	16.622800
3813.671017	17.362900
3836.718267	15.796900
3818.209000	16.873700
3816.281900	16.986200
3813.719150	17.131400
3817.453217	16.862200
3812.978917	16.996300
3809.700550	17.183600
3816.445800	16.779200
3812.269000	17.031500
3807.386783	17.325300
3803.636700	17.521700
3803.507800	17.307500
3798.642500	17.643200
3810.695533	16.910700
3802.679050	17.387900
3812.993550	16.793000
3809.514900	17.003300
3807.753633	16.967100
3803.000633	17.233200
3803.502817	17.208400
3796.629850	17.604500
3798.975367	17.290900
3802.867000	16.996100
3797.712167	17.281300
3797.885017	17.268400
3801.503167	17.045200
3803.039700	16.931000
3808.094000	16.524200
3802.341183	16.827600
3795.483583	17.209800
3792.063917	17.423500
3797.676200	17.018600
3798.358700	16.874600
3789.280600	17.328500
3795.730200	16.994900
3797.010083	16.909800
3791.188900	17.251700
3794.417933	17.028000
3792.696167	16.927000
3792.119167	16.957600
3804.433783	16.195500
3796.925783	16.630500
3796.103217	16.546600
3789.059867	16.939000
3788.895933	16.933800
3791.898000	16.735100
3794.689133	16.566000
3789.367733	16.880400
3794.463633	16.502400
3792.712683	16.573200
3790.985500	16.627400
3795.963583	16.318800
3791.809833	16.575300
3800.347667	16.057900
3780.374167	17.125000
3787.206267	16.600300
3784.144067	16.769500
3781.462117	16.913500
3780.611717	16.945600
3781.622100	16.821200
3781.292250	16.846700
3789.459617	16.358800
3780.173100	16.876400
3775.578433	17.148300
3773.248033	17.266200
3774.295667	16.925500
3780.536050	16.539500
3769.766550	17.154800
3775.174683	16.829100
3774.340317	16.733500
3780.099633	16.356900
3770.059650	16.929800
3766.430583	17.160600
3772.798017	16.774000
3779.126383	16.410000
3773.493967	16.598200
3772.302250	16.626800
3776.768450	16.364600
3771.130183	16.693800
3778.938733	16.248000
3776.573983	16.350300
3772.853467	16.579900
3776.313100	16.385000
3776.361900	16.110800
3771.124600	16.310300
