#Y dist(nm)	Y force(pN)
3386.416183	20.007900
3393.911050	19.755500
3392.670983	19.855800
3400.239750	19.421900
3399.173550	19.513700
3397.251600	19.645100
3406.625750	19.081100
3400.802967	19.451200
3409.751333	18.958500
3405.022483	19.533300
3407.285667	19.459300
3409.971933	19.287000
3409.895167	19.298500
3407.375033	19.466100
3406.460817	19.521700
3406.975950	19.499900
3402.247300	19.791200
3407.584550	19.616600
3406.085967	19.758400
3410.575733	19.535700
3405.520217	19.874500
3402.086100	20.125400
3410.860233	19.623900
3408.665250	19.762100
3407.949333	19.833900
3408.025583	19.851000
3402.602333	20.204400
3408.045350	20.082500
3413.206700	19.977800
3423.288433	19.417500
3417.876067	19.721500
3413.568717	20.000800
3410.064667	20.244700
3418.716400	19.752500
3419.981633	19.686000
3429.797200	19.123100
3426.049767	19.636300
3424.156867	19.802800
3426.443900	19.686800
3419.455067	20.115100
3420.801433	20.065200
3421.825683	20.015400
3428.261633	19.622100
3421.327317	20.057500
3435.253133	19.503600
3430.573400	19.848200
3422.438567	20.375800
3436.674217	19.507600
3436.756450	19.489400
3434.899633	19.629600
3437.608200	19.734200
3436.908350	19.777100
3442.515800	19.469300
3437.759700	19.759700
3436.158833	19.995900
3436.595050	20.051300
3436.376250	20.077700
3436.379300	20.108900
3436.009550	20.129300
3437.653317	20.051200
3444.973483	19.639800
3440.832283	19.896900
3441.508600	19.869500
3439.752700	19.988000
3439.246767	20.043100
3445.992683	19.660200
3446.289667	19.643500
3447.544267	19.582900
3448.456400	19.535600
3449.728200	19.471100
3441.943300	19.937300
3439.158167	20.631100
3454.517233	19.812000
3450.134183	20.145600
3457.416483	19.703400
3454.171683	19.901100
3461.947733	19.446300
3461.104533	19.769100
3461.303000	19.742900
3460.929983	19.791000
3461.595733	19.761000
3460.080467	19.961500
3460.427550	20.010200
3461.075700	20.048900
3457.068300	20.295200
3468.120383	19.679700
3466.987283	19.756200
3463.246850	20.016200
3467.184783	19.850700
3468.619533	19.769400
3461.409767	20.234200
3470.496267	19.729900
3473.430167	19.716700
3468.958000	20.058500
3469.655017	20.102200
3474.244850	19.801700
3466.151217	20.280400
3471.490383	19.971900
3475.053600	19.917200
3471.619117	20.181700
3471.638583	20.261700
3475.602533	20.051700
3472.782167	20.235400
3479.981050	19.812200
3482.572850	19.823300
3485.720500	19.640900
3479.182433	20.022300
3474.201217	20.301100
3483.727850	19.874300
3481.077183	20.101500
3488.891733	19.667700
3485.035383	19.921500
3483.852967	19.997500
3488.821700	19.737200
3490.977933	19.623900
3480.847483	20.422200
3495.721783	19.564200
3495.928483	19.563600
3496.436033	19.549200
3495.769967	19.765600
3492.935100	19.966700
3498.478817	19.693600
3490.110417	20.209900
3499.298533	19.689900
3497.881467	19.791400
3496.537417	19.969600
3499.510267	19.825900
3502.060183	19.791000
3503.505967	19.695700
3500.933650	19.850600
3494.926667	20.223700
3495.165750	20.263400
3503.271117	19.812700
3492.605500	20.524400
3507.153700	19.661000
3497.925967	20.232700
3502.096800	19.990100
3505.400850	19.884500
3506.907217	19.899100
3500.120333	20.360100
3506.128467	20.015200
3507.309083	20.007600
3514.613150	19.715300
3519.600167	19.438600
3518.785183	19.548300
3513.593383	19.881000
3515.552917	19.771900
3513.246050	19.900100
3503.972267	20.345500
3505.781967	20.237200
3502.492900	20.465000
3504.084050	20.399000
3506.618400	20.263700
3507.244467	20.259700
3508.088600	20.160800
3508.619467	20.121700
3505.590617	20.273500
3501.928017	20.491600
3507.899650	20.148200
3512.844083	19.851300
3509.500450	19.835600
3506.888817	19.972000
3506.260950	20.011700
3502.335933	20.240400
3502.588567	20.213200
3497.366167	20.497600
3505.623283	19.992300
3506.164833	19.953600
3503.099667	20.152000
3506.095417	19.965100
3513.540950	19.528100
3508.103817	19.843300
3513.424883	19.517400
3514.012217	19.462600
3509.408217	19.627300
3510.415117	19.287100
3508.994117	19.352200
3504.158033	19.645500
3505.985667	19.498300
3491.965033	20.207400
3495.554950	19.990700
3496.523450	19.945700
3497.509050	19.895000
3493.642633	20.068200
3503.775250	19.458800
3497.926983	19.789500
3496.943083	19.850400
3494.153217	19.997800
3493.765583	20.023800
3500.847367	19.615300
3498.618933	19.745100
3501.074267	19.612900
3496.742850	19.879700
3498.489833	19.698300
3497.577117	19.716100
3497.644133	19.681500
3497.580167	19.687600
3490.974667	20.078500
3498.001717	19.654300
3489.616067	20.153800
3496.923283	19.719000
3493.744917	19.803100
3485.767533	19.925100
3483.136133	20.079600
3488.182467	19.788400
3492.631467	19.479700
3490.320800	19.510400
3485.827617	19.774900
3484.455350	19.867700
3489.007200	19.605500
3490.145383	19.448700
3490.678367	19.408300
3488.197933	19.536900
3473.297183	20.417400
3480.248517	20.002900
3486.107583	19.644000
3487.912867	19.560700
3479.314183	20.076300
3500.387133	18.794400
3490.698700	19.347500
3482.498367	19.541200
3483.249200	19.397900
3483.639550	19.337300
3483.938483	19.332600
3472.106483	20.032800
3477.317933	19.733100
3486.546017	19.114600
3473.944817	19.704100
3474.978467	19.671700
3478.542533	19.460700
3475.981283	19.632300
3480.525617	19.344400
3471.166133	19.884000
3470.249100	19.861400
3477.406450	19.445000
3479.542233	19.302600
3475.572033	19.533600
3468.278267	19.831000
3472.743567	19.519300
3465.894967	19.930000
3471.799417	19.576000
3469.622000	19.725800
3474.672050	19.424000
3456.301683	20.318100
3465.778267	19.743100
3466.729000	19.691300
3473.363083	19.287600
3465.353683	19.703400
3464.386817	19.694200
3476.879983	18.928200
3472.748850	19.206200
3472.113100	19.226300
3473.588100	19.143200
3470.268650	19.296800
3465.760250	19.513700
3465.809883	19.490100
3463.793733	19.611000
3461.236933	19.732200
3458.885150	19.760300
3457.606150	19.829900
3459.964533	19.688700
3465.733717	19.349200
3462.221000	19.549400
3464.230400	19.424000
3456.864850	19.694300
3455.871833	19.703100
3464.213183	19.200000
3458.687400	19.537700
3458.094417	19.575100
3456.438517	19.674700
3453.988100	19.839800
3454.437033	19.801200
3460.848267	19.409800
3463.488900	19.246700
3459.598867	19.232800
3455.394833	19.359600
3460.840167	19.017400
3453.698883	19.459200
3445.410483	19.949400
3448.189300	19.770500
3452.767533	19.351500
3447.754550	19.468400
3450.599350	19.296800
3450.763483	19.292700
3454.779817	19.023100
3449.606667	19.268500
3456.897233	18.832500
3451.680650	19.145000
3447.836317	19.349800
3447.108850	19.385000
3439.878267	19.775500
3441.037267	19.500400
3438.268817	19.643500
3437.791433	19.675500
3445.227750	19.211000
3441.687617	19.421200
3442.707533	19.364100
3434.199467	19.868200
3444.402317	19.258600
3438.411417	19.344400
3434.384733	19.504200
3433.542700	19.549400
3435.555917	19.421500
3424.797500	20.076800
3433.271517	19.583800
3431.780783	19.674000
3433.538933	19.563900
3437.646650	19.149200
3429.656733	19.459800
3424.464267	19.776400
3423.770783	19.805400
3430.592267	19.352200
3434.547817	18.997600
3431.572600	19.166600
3424.459617	19.595800
3430.812983	19.231500
3432.861367	19.149100
3418.602300	20.027000
3430.102350	19.155800
3426.992967	19.328800
3434.384150	18.881000
3418.195650	19.845200
3424.331250	19.510400
3431.296017	19.056100
3423.993733	19.471200
3426.191400	19.346600
3424.082167	19.367200
3424.870467	19.288900
3426.104150	19.212500
3424.297733	19.266600
3425.419500	19.187300
3422.283483	19.359600
3427.198300	19.074200
3432.059150	18.774500
3429.549250	18.881000
3428.706083	18.928800
3429.815467	18.850300
3426.266767	19.052800
3423.794633	18.944700
3419.026083	19.034100
3421.277217	18.894700
3421.710633	18.879600
3414.374100	19.297100
3423.355083	18.761700
3424.524850	18.670400
3418.115600	18.860000
3414.614617	19.064200
3411.325283	19.274400
3414.046100	19.140200
3415.009717	19.088200
3420.002850	18.781700
3420.861733	18.719400
3417.613217	18.922900
3421.167283	18.398400
3414.410817	18.778600
3411.305167	18.961000
3412.843033	18.883200
3415.872717	18.656800
3403.631000	19.372700
3412.118450	18.857000
3415.953433	18.628500
3411.577317	18.876100
3408.487933	19.059300
3415.765600	18.433400
3412.240933	18.615600
3403.993483	19.116000
3409.899200	18.775400
3392.555650	19.835600
3403.699050	19.145000
3399.003483	19.437000
3401.197933	19.323300
3407.034767	18.856300
3401.229933	18.972300
3406.361867	18.658600
3399.270900	19.082900
3409.008550	18.498500
3401.981167	18.916000
3397.856850	19.185200
3402.263400	18.912500
3403.411667	18.824200
3399.219167	18.964300
3399.602883	18.927000
3404.554433	18.612300
3398.677817	18.976300
3401.054350	18.818000
3397.818000	18.980300
3400.115917	18.814900
3404.594817	18.549100
3397.187000	18.637100
3397.236533	18.624300
3399.069200	18.498800
3396.003900	18.668900
3392.243333	18.785100
3383.633900	19.227200
3390.699383	18.797100
3392.839933	18.688500
3391.315317	18.772900
3392.873500	18.672800
3392.297400	18.657200
3388.047800	18.717800
3379.734717	19.223200
3380.414033	19.177500
3394.750983	18.308100
3386.249100	18.805100
3389.062900	18.640400
3388.711983	18.674400
3382.200683	18.994800
3379.529833	18.927900
3374.780567	19.187800
3378.220117	18.916000
3380.879200	18.728900
3376.721117	18.971500
3375.869883	19.020600
3371.302633	19.152000
3371.524567	19.095100
3380.133200	18.503300
3372.566450	18.960800
3379.792883	18.514500
3370.831083	19.048200
3363.990800	19.326800
3368.704400	19.053800
3361.092400	19.531400
3375.233533	18.674100
3373.449033	18.669600
3363.873967	19.180600
3368.309800	18.870500
3372.664833	18.606300
3367.051667	18.933400
3366.566400	18.953000
3366.633633	18.910200
3370.010467	18.656800
3368.399350	18.747200
3370.208100	18.621200
3376.990150	18.209600
3382.875900	17.839700
3380.672900	17.956700
3363.109283	18.840900
3369.346083	18.450000
3367.293533	18.567300
3366.076767	18.630700
3367.673733	18.398400
3367.165467	18.378100
3364.884617	18.438700
3365.412367	18.377500
3354.413367	19.085500
3366.859367	18.325000
3359.843683	18.712500
3363.600717	18.456100
3369.231700	18.101600
3363.203217	18.412000
3359.357133	18.652800
3364.171000	18.375500
3353.384433	18.971400
3358.512950	18.545900
3359.166050	18.480800
3358.544400	18.494600
3350.354817	18.996400
3350.367450	19.011500
3357.997533	18.482400
3354.720167	18.609400
3364.157867	18.031300
3353.052317	18.681700
3353.649233	18.627300
3358.208600	18.230000
3358.607617	18.190000
3356.690500	18.244100
3349.638533	18.646500
3348.831933	18.662400
3353.639400	18.375500
3343.765950	18.859100
3345.066317	18.712600
3338.334033	19.095600
3346.630033	18.602700
3356.077317	18.052300
3350.420033	18.405000
3347.061100	18.608900
3347.838600	18.557000
3356.210417	17.826700
3340.526817	18.738700
3343.523317	18.512200
3342.568983	18.538500
3340.996367	18.610000
3341.255017	18.552100
3349.206000	18.096200
3342.959183	18.461400
3343.880583	18.381000
3342.696533	18.307200
3341.704233	18.346800
3337.190383	18.653400
3339.711700	18.470300
3343.549083	18.111300
3341.126233	18.240300
3338.590350	18.384500
3346.731200	17.904500
3342.933767	18.090700
3339.810783	18.283800
3342.096833	18.051000
3332.758483	18.570000
3327.981250	18.760400
3338.771133	18.126300
3336.817933	18.207000
3335.359550	18.290300
3338.181017	18.011800
3336.645850	18.056000
3330.571667	18.388000
3335.389200	18.072200
3333.505200	18.169100
3330.804633	18.330600
3323.873033	18.695700
3323.198033	18.660000
3330.745100	18.221600
3324.446083	18.610500
3330.141550	18.230000
3325.264283	18.398400
3326.527717	18.324100
3323.861233	18.429000
3328.151500	18.170900
3330.863183	17.998500
3332.549867	17.861200
3323.353500	18.264200
3320.205783	18.463500
3325.354867	18.148000
3315.769383	18.730800
3322.702867	18.268000
3320.536400	18.379400
3336.263017	17.373400
3324.930267	18.031300
3314.182517	18.692200
3324.408433	18.082200
3313.277733	18.657600
3323.553483	17.963400
3327.793000	17.643200
3321.901283	17.974500
3320.583650	18.043400
3315.344200	18.337400
3307.348383	18.778500
3312.524983	18.373500
3312.460300	18.371000
3306.362917	18.681700
3304.214733	18.833100
3306.282967	18.735400
3316.670733	18.115200
3306.979767	18.623500
3316.055850	18.060500
3316.057500	18.037100
3308.831333	18.450900
3314.268567	18.062800
3309.453633	18.331800
3311.500917	18.198100
3316.941817	17.857300
3306.752050	18.255500
3310.827050	18.019400
3302.953667	18.456100
3302.890417	18.415300
3308.810117	18.010300
3310.302317	17.890900
3306.948033	18.083700
3308.174733	18.030000
3305.212667	18.031300
3306.326417	17.967700
3302.107983	18.178200
3302.702517	18.148000
3292.516400	18.698900
3296.743383	18.354000
3299.801083	18.142800
3299.123517	18.148900
3300.829400	18.051500
3297.962367	18.210400
3301.243067	17.989300
3300.528300	17.892500
3301.002217	17.839000
3296.177017	18.079900
3292.484317	18.294400
3299.071500	17.892500
3297.688483	17.957100
3290.510700	18.253700
3284.662750	18.575000
3288.929817	18.317200
3292.398033	18.121800
3287.721133	18.288300
3291.140500	18.027800
3279.096867	18.713200
3288.039517	18.158500
3290.762817	17.999800
3285.585450	18.308600
3288.467750	18.107600
3288.296983	18.004800
3286.082000	18.099500
3281.574933	18.337500
3279.334417	18.476800
3280.099150	18.435500
3286.177017	18.090700
3282.608483	18.229800
3289.680550	17.774900
3285.014033	18.044400
3285.693433	18.005100
3289.706050	17.621600
3287.817533	17.663400
3283.019533	17.889000
3283.218633	17.865600
3283.441383	17.872200
3283.319400	17.855600
3278.426700	18.158600
3276.503550	18.281300
3270.732483	18.543600
3287.649083	17.498400
3277.491583	18.066300
3276.714450	18.110900
3275.578967	18.061000
3274.643450	18.042800
3274.484717	18.014800
3276.235683	17.876400
3263.183767	18.656800
3271.886867	18.138100
3269.289200	18.245900
3270.244550	18.079700
3274.377900	17.820800
3270.675033	18.033900
3271.600033	17.943600
3276.755533	17.462400
3274.816850	17.535800
3268.619633	17.836200
3265.272833	18.021600
3261.352117	18.233800
3266.534300	17.907200
3260.301083	18.136200
3271.425617	17.410300
3265.963683	17.679900
3271.110217	17.372800
3261.549000	17.944100
3263.809717	17.811700
3260.334100	17.923400
3271.174650	17.261300
3252.767583	18.360000
3265.213617	17.598100
3262.361950	17.640500
3258.477933	17.782800
3259.482033	17.690400
3253.667883	17.992800
3255.287200	17.884400
3258.982583	17.662800
3262.721917	17.386600
3255.705267	17.682700
3252.760150	17.816300
3243.648017	18.352000
3248.971367	18.039400
3252.288533	17.833200
3255.978233	17.622900
3244.912667	18.127600
3246.599683	18.006300
3252.357917	17.664100
3246.326967	18.023200
3255.321667	17.406400
3255.717333	17.368500
3245.470567	17.961400
3247.781350	17.798600
3240.275917	18.020800
3256.030400	17.090300
3249.630467	17.418100
3239.664050	17.958500
3248.980233	17.406300
3254.204050	17.079200
3244.834800	17.622200
3247.118350	17.495600
3240.865500	17.832800
3243.277300	17.581700
3243.700017	17.543500
3238.276350	17.879600
3246.339183	17.359200
3245.469633	17.298300
3240.109800	17.601200
3232.942983	17.997000
3234.343133	17.933100
3231.033633	18.144600
3244.644050	17.339000
3236.943167	17.660200
3237.393500	17.626400
3230.746800	17.990000
3232.462100	17.882000
3240.015317	17.443900
3242.091483	17.319600
3240.375217	17.412400
3230.375733	18.012000
3235.355650	17.520800
3236.569217	17.431300
3237.044733	17.363400
3243.523000	16.950800
3239.161617	17.118700
3236.431417	17.289400
3228.525867	17.737600
3232.969717	17.498200
3233.498183	17.365200
3229.402817	17.530900
3221.296783	18.008400
3231.809550	17.339000
3234.624050	17.163200
3232.196183	17.306100
3226.560033	17.631900
3228.333600	17.462000
3227.438333	17.517900
3230.344000	17.339000
3222.685400	17.780300
3230.997667	17.139700
3222.095850	17.636000
3226.216567	17.342500
3216.270050	17.926400
3232.891217	16.920700
3226.465533	17.296200
3227.061000	17.125400
3225.107650	17.189600
3224.887000	17.155400
3229.776967	16.864600
3216.063533	17.669400
3213.649050	17.814500
3219.641083	17.340600
3213.229983	17.660400
3214.621883	17.527800
3216.517517	17.391400
3208.706917	17.843200
3210.847017	17.716000
3207.272400	17.882000
3206.197933	17.862000
3207.752483	17.738400
3213.336900	17.409200
3221.608517	16.897600
3216.336283	17.084400
3208.174583	17.551200
3209.155583	17.485800
3215.502733	17.093400
3215.529617	17.099800
3211.554267	17.316400
3208.735350	17.337500
3216.429850	16.841600
3210.621683	17.141400
3210.979083	17.097000
3211.984233	17.051400
3207.399283	17.340300
3207.523350	17.255000
3207.948450	17.217500
3205.602517	17.359900
3202.542150	17.552300
3204.277017	17.374600
3206.652917	17.087200
3207.311317	17.029900
3207.443600	17.028500
3199.698783	17.475300
3200.518133	17.418000
3198.659367	17.502400
3199.378000	17.318000
3194.069150	17.603600
3195.069883	17.498100
3193.025683	17.610900
3200.735183	17.158200
3205.508833	16.882200
3198.084967	17.139700
3196.636217	17.224900
3197.603617	17.178100
3195.146350	17.305100
3192.877650	17.278100
3189.092467	17.533600
3190.615100	17.480600
3194.933950	17.209100
3191.738633	17.275200
3195.203817	17.023600
3189.335700	17.341100
3192.077650	17.157800
3193.930783	17.041500
3189.468450	17.307500
3184.725867	17.551600
3189.421467	17.158300
3186.679817	17.311900
3179.774017	17.689600
3187.525133	17.249400
3177.548717	17.846200
3184.975150	17.382800
3187.655383	17.184900
3186.331167	17.256700
3187.161933	17.154000
3189.279700	17.005700
3182.251117	17.401900
3186.059400	17.184800
3183.788883	17.131800
3179.844517	17.326900
3173.032517	17.723200
3180.609433	17.283000
3172.870533	17.598600
3174.916817	17.434000
3182.662450	16.934000
3186.495600	16.720700
3178.858250	17.169500
3173.939400	17.453000
3179.172717	17.055700
3184.159067	16.751500
3181.523033	16.898400
3180.265667	16.966300
3181.038033	16.818000
3178.406233	16.856400
3182.460067	16.590400
3172.524000	17.124200
3171.640733	17.187300
3175.757083	16.892700
3172.567100	17.070800
3169.465483	17.241900
3173.305233	16.992000
3171.269200	16.950800
3170.707917	16.954900
3167.676483	17.146200
3167.401100	17.155700
3167.270033	17.051700
3164.625300	17.152100
3158.473083	17.473200
3162.321933	17.223600
3163.367283	17.163300
3160.568900	17.337500
3159.349467	17.316100
3160.198833	17.202600
3161.091467	17.114200
3170.649050	16.515800
3171.233350	16.484000
3163.801700	16.912400
3156.888317	17.350300
3156.655583	17.354400
3161.356883	16.877400
3154.162350	17.327900
3153.431000	17.365700
3154.580267	17.298700
3161.368383	16.875000
3159.400867	16.947100
3164.208900	16.640600
3161.726717	16.780600
3156.770333	17.011500
3156.630317	16.913500
3160.116300	16.703900
3148.450783	17.352900
3142.103467	17.726200
3146.197167	17.477200
3147.245533	17.424600
3158.874533	16.595700
3152.247050	16.960100
3152.730350	16.937300
3145.187583	17.392800
3159.858233	16.451700
3160.618167	16.360900
3154.945183	16.644000
3155.734067	16.555900
3150.140633	16.850100
3155.319383	16.548300
3143.944750	17.224400
3156.478967	16.471000
3132.972700	17.643200
3137.795283	17.334600
3144.085800	16.927400
3150.760833	16.509600
3144.994033	16.820100
3146.985350	16.654100
3145.707767	16.726300
3144.168083	16.824900
3143.905700	16.817600
3140.923733	16.855800
3139.081367	16.953100
3131.934833	17.300100
3131.552800	17.330600
3134.482717	17.154100
3142.964950	16.627100
3142.909100	16.464800
3128.594000	17.309900
3136.235933	16.835400
3132.629767	17.057500
3137.121183	16.650300
3129.220583	17.089200
3135.474767	16.662400
3123.782750	17.360600
3120.954600	17.582000
3122.699050	17.503100
3129.840433	17.076000
3134.532450	16.798100
3127.318800	17.003300
3124.761700	17.155400
3131.333650	16.758500
3127.206317	17.005900
3118.120800	17.458400
3124.228417	17.026000
3122.761517	17.088100
3115.025150	17.544800
3120.809117	17.182900
3125.007483	16.948200
3127.701417	16.754500
3125.296233	16.845900
3126.998317	16.730500
3127.726317	16.670500
3125.780150	16.749800
3115.043717	17.248600
3127.985667	16.439800
3119.692183	16.895400
3127.094933	16.455900
3113.027550	17.294000
3122.041867	16.768600
3119.627433	16.789200
3110.720450	17.273600
3116.122033	16.898400
3122.581767	16.517200
3124.452783	16.413900
3116.880467	16.836700
3118.877083	16.573200
3112.688750	16.916300
3111.991100	16.961300
3119.748050	16.484000
3119.247367	16.453000
