#Y dist(nm)	Y force(pN)
3504.811950	20.498200
3516.387433	19.852100
3521.684200	19.594300
3524.131900	19.655500
3523.509517	19.738200
3521.015767	19.896900
3520.781567	19.922100
3529.010583	19.459100
3528.047433	19.529300
3529.384067	19.477500
3527.312533	19.606400
3534.461817	19.452300
3531.679750	19.714900
3532.818417	19.667100
3537.702383	19.398500
3537.595433	19.418600
3539.227667	19.335600
3531.259133	19.825100
3529.850583	19.906400
3546.748567	19.223700
3538.887317	19.710900
3541.362067	19.589700
3535.177817	20.001600
3535.230183	20.117900
3532.710267	20.415300
3544.758250	19.716400
3538.146783	20.141000
3542.237267	19.915800
3543.776150	19.822900
3544.741917	19.833000
3551.492667	19.589700
3548.725550	19.746400
3551.265550	19.600900
3544.586250	20.000200
3555.160083	19.381700
3551.491167	19.596600
3546.156100	19.919500
3544.811517	20.037900
3546.960733	20.196800
3547.557583	20.218100
3553.890133	19.859600
3551.505033	20.010200
3546.601983	20.287700
3556.934017	19.704000
3552.165933	20.001800
3550.973483	20.080100
3561.607500	19.777900
3554.559400	20.234200
3560.969650	19.870300
3553.789017	20.318100
3553.859333	20.446100
3558.063967	20.304900
3554.321100	20.548900
3562.191883	20.090000
3561.633583	20.138900
3557.679033	20.384600
3558.501533	20.429000
3556.300200	20.732500
3558.841667	20.604000
3570.268133	19.919000
3566.336817	20.155500
3562.635950	20.408200
3564.075183	20.324000
3571.680083	19.856600
3571.627367	19.909800
3573.451250	19.947700
3561.775133	20.678300
3565.522817	20.481600
3566.427383	20.444000
3568.430933	20.383700
3567.529167	20.440500
3567.374383	20.481800
3569.221167	20.381100
3576.016733	20.079500
3578.042883	20.028500
3574.192967	20.271300
3570.166033	20.526800
3569.882300	20.569900
3570.114900	20.568100
3573.184717	20.427900
3581.099767	19.972500
3578.701950	20.130700
3585.109000	19.780000
3583.558767	20.062500
3592.085200	19.951600
3588.543567	20.190900
3586.255717	20.348400
3585.560433	20.425100
3581.714733	20.864300
3591.389967	20.332800
3588.334817	20.524800
3590.180200	20.445700
3589.356717	20.502300
3592.040283	20.365700
3595.164883	20.204000
3585.240617	20.810400
3592.312217	20.402700
3596.022717	20.197500
3586.051067	20.459700
3592.774283	20.069600
3578.509033	20.944700
3588.669067	20.346600
3588.658033	20.179700
3586.772850	20.299000
3588.572250	20.168800
3595.649167	19.749000
3576.542733	20.667800
3590.113500	19.887400
3580.898233	20.444000
3581.628083	20.412500
3588.251417	20.001300
3589.941783	19.864400
3586.255750	20.082100
3581.072233	20.400800
3581.202283	20.385800
3587.153550	19.970800
3579.994350	20.389600
3584.665467	20.133000
3578.483000	20.522200
3569.421617	21.030300
3583.280717	20.208300
3587.123783	19.973300
3584.989783	20.088800
3574.623333	20.416700
3578.348667	20.149500
3578.790117	20.088600
3582.538083	19.865000
3580.868650	19.928500
3588.307067	19.497300
3581.759067	19.879800
3585.920567	19.609500
3571.799633	20.270900
3579.917100	19.707700
3585.052733	19.402700
3583.494967	19.505100
3572.602617	20.147100
3579.535117	19.738800
3578.208683	19.820600
3575.368233	20.005400
3567.959133	20.342600
3565.547383	20.263700
3565.359100	20.272900
3571.234817	19.921500
3573.666200	19.749400
3563.054967	20.261700
3563.035017	20.277000
3574.707800	19.613500
3565.743533	20.158100
3568.316583	20.015900
3566.730933	20.108300
3561.926350	20.238100
3573.157633	19.541900
3560.448233	20.306600
3561.042533	20.252600
3554.003433	20.666000
3563.511283	20.118800
3572.332217	19.596600
3567.448783	19.890500
3564.112483	19.858100
3556.185500	20.254000
3549.970417	20.645400
3567.815333	19.606100
3566.964717	19.699200
3569.062983	19.532900
3568.921683	19.520900
3572.010033	19.323800
3561.396317	19.667700
3552.708350	20.158900
3557.683967	19.864800
3558.162700	19.841800
3561.349717	19.656300
3554.368067	19.939800
3556.059033	19.823000
3552.170550	20.075200
3560.680450	19.570900
3559.511900	19.622500
3557.709017	19.740300
3556.082917	19.650000
3550.758667	19.935600
3547.620667	20.135700
3544.255283	20.354000
3552.359983	19.889300
3548.240350	20.138500
3565.201433	19.134800
3554.508550	19.780000
3554.705917	19.649400
3549.051900	19.981600
3551.152117	19.827600
3544.459517	20.232900
3552.860483	19.606400
3548.092783	19.846100
3551.678883	19.610000
3556.822167	19.284300
3544.992017	19.995600
3550.848033	19.610000
3543.527150	19.946200
3538.630933	20.139200
3542.641667	19.906200
3548.357750	19.545100
3537.462433	20.127200
3542.946600	19.715500
3540.240100	19.880800
3543.585800	19.668400
3540.717017	19.832100
3554.038167	19.013400
3548.331233	19.338800
3544.155500	19.459000
3530.548967	20.278800
3534.844450	20.040100
3543.168617	19.547100
3540.788450	19.507900
3546.155817	19.146000
3538.563600	19.604800
3541.919733	19.411100
3527.931900	20.257600
3536.578933	19.739900
3537.259367	19.553700
3536.204483	19.586300
3540.444183	19.318100
3536.708183	19.540100
3538.872033	19.415000
3533.569850	19.734400
3538.854033	19.295300
3533.474233	19.530800
3535.095200	19.434700
3531.757017	19.645200
3526.401333	19.988600
3525.671967	20.045400
3532.331683	19.655600
3533.495883	19.603700
3534.134633	19.497500
3527.200250	19.646200
3529.773033	19.462400
3529.955117	19.449900
3533.220817	19.231200
3528.608083	19.504700
3528.586100	19.497100
3530.370050	19.379800
3536.896750	19.005100
3527.442633	19.404200
3524.534350	19.541200
3529.568200	19.248100
3521.934467	19.697700
3524.902417	19.536600
3521.534333	19.712000
3527.103333	19.216700
3518.483617	19.655400
3524.191217	19.262100
3519.423817	19.527000
3518.833817	19.563600
3514.661383	19.793000
3517.900717	19.455300
3509.514350	19.955200
3508.973833	19.990700
3509.312017	19.981800
3507.650083	20.087300
3517.070317	19.515600
3515.745733	19.593500
3522.712800	19.171000
3518.054083	19.438700
3519.362350	19.342000
3529.094000	18.694600
3518.766083	19.122800
3519.758683	19.045700
3513.093300	19.442500
3508.671717	19.700100
3510.357867	19.606500
3510.687583	19.590800
3515.988167	19.263300
3518.232200	19.111000
3517.889850	19.126000
3521.207850	18.914800
3518.543733	18.678200
3508.980033	19.244600
3506.729717	19.383300
3509.959967	19.157700
3504.694983	19.352000
3501.462400	19.471000
3510.997467	18.900600
3508.758117	19.052100
3504.429667	19.329600
3508.234083	19.097600
3510.848100	18.937300
3516.707083	18.576200
3510.431917	18.866100
3508.429533	18.745700
3498.421833	19.356800
3498.813183	19.312400
3499.802483	19.247300
3499.806017	19.252500
3503.276900	19.023400
3506.612033	18.822500
3501.564117	19.116600
3504.541767	18.658200
3504.724167	18.592500
3490.604333	19.425200
3502.055583	18.743300
3499.387283	18.900500
3494.583800	19.199200
3490.134817	19.290900
3492.812050	19.085500
3492.426900	19.098700
3490.850517	19.170000
3489.978717	19.225500
3484.490117	19.551000
3501.081267	18.461400
3489.974700	19.096300
3500.823583	18.458600
3487.946617	19.232100
3490.316567	18.984300
3482.834983	19.369400
3488.467600	19.024900
3483.188300	19.342600
3484.737967	19.274400
3479.836700	19.584400
3484.710600	19.283800
3478.086033	19.673600
3489.529817	19.016400
3484.254167	19.328700
3491.188317	18.861600
3484.542983	18.923000
3484.190967	18.935100
3486.482250	18.801400
3486.243200	18.793600
3487.482517	18.563400
3479.159967	19.042200
3487.529167	18.541500
3481.460633	18.906800
3481.749167	18.886500
3482.911867	18.813900
3475.235033	19.217300
3480.309867	18.886200
3473.922283	19.278200
3468.254267	19.599000
3474.133367	19.236300
3477.211433	19.050200
3481.047600	18.802300
3473.744233	19.255100
3469.801750	19.395700
3480.562867	18.691500
3477.746000	18.845800
3471.408067	19.213200
3477.116867	18.864900
3479.111750	18.712600
3479.691417	18.645000
3473.105633	19.043000
3473.001450	19.017400
3473.604717	18.974100
3475.632200	18.811900
3470.134683	18.912500
3465.966633	19.115000
3465.264000	19.021900
3460.713800	19.286200
3461.927183	19.214900
3471.602783	18.621500
3470.297467	18.557100
3458.543050	19.237600
3466.791433	18.716900
3468.606433	18.587300
3465.776367	18.734100
3456.979267	19.248900
3465.548183	18.749900
3475.724133	18.135500
3474.414867	18.184200
3459.814117	19.066800
3460.955050	18.782800
3458.390433	18.831200
3453.168133	19.136900
3461.413900	18.650200
3455.100850	19.025200
3454.303033	19.076000
3461.747917	18.626400
3461.306600	18.652300
3461.562883	18.513800
3457.237667	18.687900
3458.429383	18.587300
3460.147367	18.448800
3465.737583	18.113000
3456.922767	18.632700
3457.284267	18.592200
3448.653500	19.102000
3453.359650	18.814600
3446.496083	18.947900
3443.033483	19.111100
3442.517033	19.133600
3442.477233	19.143200
3442.699000	19.129000
3440.636917	19.245300
3456.725333	18.209600
3447.674533	18.731000
3448.274467	18.687300
3446.434617	18.789900
3447.266550	18.616600
3453.077633	18.226400
3439.475700	19.015300
3438.636500	19.067200
3439.593617	19.012500
3443.936850	18.770500
3448.208900	18.362500
3437.335667	18.900000
3431.584717	19.227900
3430.980433	19.259300
3436.719350	18.928900
3441.147267	18.657000
3438.752267	18.736500
3431.060483	19.036700
3433.571883	18.891500
3436.907750	18.681100
3438.521133	18.575300
3434.986000	18.738100
3445.405300	18.114400
3442.155200	18.303400
3438.573383	18.503300
3424.970317	19.294800
3427.573833	19.123100
3436.012033	18.596300
3433.622033	18.756500
3433.439467	18.782400
3440.245283	18.376700
3431.221267	18.512100
3428.107350	18.693400
3429.743867	18.573300
3430.488650	18.543100
3431.573567	18.354900
3426.894583	18.612800
3428.698967	18.461400
3433.428283	18.147200
3424.364633	18.684500
3421.261433	18.868400
3415.281017	19.198500
3416.088317	19.112400
3414.705617	19.184400
3413.823033	19.240400
3421.266583	18.745400
3419.671167	18.822000
3422.144633	18.657500
3421.128867	18.667200
3426.020433	18.350600
3417.758017	18.819000
3419.985133	18.677300
3422.987700	18.315100
3421.283367	18.359700
3416.509983	18.580700
3415.546017	18.614100
3420.976150	18.271000
3413.433983	18.718700
3413.837383	18.511700
3411.572333	18.645500
3414.292883	18.484100
3408.992933	18.804800
3404.987183	18.920300
3406.695200	18.771400
3411.815967	18.408900
3403.812583	18.876800
3412.554967	18.349500
3400.683267	19.058100
3407.265300	18.608200
3408.872967	18.433800
3403.578967	18.723600
3400.111417	18.914400
3407.997183	18.432200
3406.621433	18.513800
3410.002000	18.275800
3411.545533	18.055100
3408.882567	18.180600
3405.073683	18.430700
3406.201650	18.325900
3396.312567	18.787200
3396.605367	18.750300
3396.144567	18.759000
3396.882683	18.722300
3392.797117	18.963600
3394.297867	18.913200
3391.746483	18.966800
3398.476833	18.528800
3400.032900	18.367000
3398.349567	18.467400
3405.696150	17.999800
3399.990650	18.328300
3386.559883	18.980600
3393.611600	18.547900
3392.428300	18.639700
3389.305800	18.802300
3385.415317	19.027800
3394.243133	18.463700
3391.438533	18.617900
3393.193667	18.504600
3393.680633	18.480800
3394.507000	18.401200
3389.085350	18.668800
3389.046433	18.520400
3392.193283	18.272600
3392.925450	18.177400
3385.322750	18.645700
3387.683850	18.473500
3393.855333	18.076100
3390.778550	18.132700
3384.340600	18.509500
3381.621867	18.624000
3384.492417	18.440400
3386.570317	18.324300
3382.185850	18.574000
3384.964050	18.225400
3388.612267	17.999100
3394.786433	17.590700
3393.082967	17.691900
3374.226150	18.683800
3370.781817	18.850200
3373.671050	18.629200
3377.590150	18.431800
3394.896717	17.375700
3390.954967	17.610300
3378.789217	18.308100
3379.887700	18.151000
3378.741150	18.208000
3372.575667	18.520800
3373.603050	18.460300
3379.572150	18.097900
3381.458550	17.989300
3379.508983	17.932700
3373.305983	18.269600
3384.038000	17.670100
3376.124883	18.125000
3379.362317	17.853600
3370.780800	18.347200
3376.321433	17.934800
3374.246717	18.047700
3371.652017	18.167700
3374.342617	17.990700
3375.743017	17.802300
3368.360450	18.172300
3367.471133	18.189500
3366.840533	18.200300
3368.182767	18.112200
3372.918617	17.811600
3363.044450	18.304000
3362.089233	18.302900
3357.598233	18.551300
3370.754683	17.764700
3363.659483	18.175700
3356.210000	18.508900
3356.352467	18.494400
3358.955517	18.278400
3362.263467	18.085800
3365.672067	17.891700
3364.362050	17.955100
3369.589633	17.552300
3363.917867	17.904300
3358.514133	18.209600
3355.057750	18.431800
3354.170250	18.314500
3355.827150	18.217000
3361.724317	17.824500
3354.819400	18.222100
3359.831033	17.907800
3353.436950	18.249700
3359.456283	17.900600
3358.892767	17.940000
3355.493817	18.091800
3355.941017	17.939100
3355.728817	17.955600
3352.495367	18.161700
3355.398717	17.954100
3357.814467	17.658600
3351.219333	18.018800
3346.592800	18.276400
3354.494383	17.792300
3341.611367	18.563100
3349.683300	18.081100
3352.870533	17.743700
3347.940767	18.017100
3354.487567	17.556600
3348.241483	17.903300
3353.008867	17.617800
3352.263350	17.658400
3349.097367	17.658900
3357.050717	17.192700
3353.558950	17.359900
3351.074367	17.537700
3350.735683	17.520800
3341.459433	18.046400
3341.986583	17.996600
3351.175383	17.387900
3347.290833	17.597900
3343.292833	17.828300
3339.815600	18.002800
3341.229083	17.765600
3341.272933	17.751800
3340.538700	17.791900
3339.023050	17.852200
3333.290683	18.078800
3329.683900	18.286900
3328.760117	18.282000
3329.759700	18.243700
3330.640800	18.191800
3338.895900	17.695600
3337.226633	17.664800
3336.156850	17.715100
3331.024383	17.969900
3338.119917	17.500800
3337.393367	17.523300
3344.425233	17.096900
3333.488867	17.621400
3329.368683	17.796800
3331.301567	17.648400
3328.537467	17.800500
3328.436717	17.808000
3329.511750	17.743900
3329.168983	17.743700
3329.278650	17.722900
3322.635183	18.116000
3316.377683	18.491000
3329.793983	17.660900
3324.360183	17.915900
3322.789450	18.000700
3327.576033	17.705300
3328.403500	17.644000
3322.788900	17.774800
3317.726767	18.066300
3316.719000	18.071500
3322.861433	17.696600
3311.732850	18.319000
3319.841450	17.849500
3325.880433	17.468900
3329.883500	17.225800
3317.606417	17.792700
3312.215600	18.097300
3318.395367	17.750700
3315.295033	17.936300
3313.571167	17.928600
3317.551750	17.620900
3315.660383	17.653700
3317.817100	17.533000
3306.207283	18.220100
3313.077117	17.818200
3312.286350	17.784400
3307.346150	18.020200
3309.611617	17.859000
3308.347533	17.905400
3305.431617	18.060300
3303.201067	18.202800
3305.991750	18.031300
3306.725300	17.878300
3303.973083	18.041000
3307.619133	17.825000
3305.346967	17.961900
3310.429000	17.512600
3307.028367	17.700900
3309.573433	17.480600
3310.343733	17.411000
3304.665933	17.753300
3308.923867	17.486700
3309.564883	17.321900
3309.454100	17.283700
3299.596650	17.807500
3300.199900	17.744800
3297.889550	17.890300
3299.733983	17.772800
3294.904050	18.010300
3289.254500	18.332200
3306.777867	17.302200
3297.992650	17.822200
3293.424517	18.061800
3300.598483	17.557400
3296.400950	17.776000
3299.901867	17.546100
3302.439850	17.376100
3305.443200	17.159200
3304.333300	17.138800
3288.033917	17.995200
3293.177433	17.643200
3285.084800	18.061000
3289.501017	17.791500
3293.275083	17.558000
3285.581883	18.018200
3292.159200	17.473600
3294.944817	17.292600
3294.828933	17.307500
3296.272967	17.205600
3286.539733	17.721800
3295.410050	17.167000
3275.436733	18.289400
3286.675267	17.609700
3281.422283	17.941100
3285.122000	17.706100
3279.098683	17.953100
3278.959083	17.895500
3295.387867	16.919400
3283.713067	17.551800
3278.938817	17.827500
3277.685633	17.905400
3278.282633	17.822300
3277.851767	17.741100
3272.791817	18.029100
3278.922483	17.664800
3277.042800	17.711800
3278.093233	17.541500
3277.553217	17.547300
3279.482067	17.389800
3279.640067	17.374500
3275.283917	17.628900
3280.347700	17.347900
3277.740200	17.441200
3273.037417	17.691900
3281.780600	17.108200
3276.128017	17.441400
3274.038383	17.563700
3285.079783	16.891400
3281.891517	16.998900
3273.865717	17.435700
3274.128683	17.318000
3279.745883	17.022500
3278.097233	17.102600
3270.933850	17.515300
3277.946533	17.046200
3275.491067	17.040300
3269.201550	17.405200
3269.202750	17.409400
3265.125200	17.623000
3267.441167	17.421000
3270.792067	17.189700
3259.374133	17.854700
3270.450800	17.166700
3265.894317	17.417400
3272.412967	17.009700
3265.833200	17.241100
3269.580350	17.001700
3262.117467	17.439900
3259.331683	17.618000
3258.887817	17.529900
3253.441467	17.790000
3256.942267	17.529900
3260.212567	17.329800
3260.195800	17.349400
3268.204750	16.868800
3259.182200	17.310400
3260.092800	17.162800
3260.727450	17.078500
3265.917267	16.711800
3265.513650	16.730500
3263.598733	16.821200
3261.912667	16.875600
3251.642567	17.344500
3249.476883	17.468300
3249.589650	17.455000
3256.574783	17.042000
3252.874617	17.241300
3249.171900	17.433400
3247.288083	17.468300
3245.975350	17.578300
3249.517517	17.367300
3243.204000	17.737600
3248.189083	17.282300
3250.950917	17.119500
3250.071267	17.169600
3241.818267	17.645400
3253.841200	16.786000
3250.012900	16.983700
3246.754717	17.128500
3240.573000	17.508400
3245.872817	17.152200
3252.938300	16.748200
3249.618600	16.944700
3251.149833	16.840100
3251.346933	16.688600
3244.764867	17.057700
3236.557767	17.538300
3241.729917	17.246400
3244.579000	17.032600
3241.531100	17.097700
3243.480867	16.958700
3243.322517	16.919400
3242.395017	16.969800
3233.981617	17.490300
3238.326750	17.212300
3236.579317	17.180400
3239.420933	16.984700
3241.744800	16.793500
3246.990850	16.483300
3241.836117	16.760700
3244.096600	16.632100
3240.726933	16.679000
3235.415217	16.990500
3241.586800	16.589500
3225.121983	17.590700
3241.663083	16.578800
3235.949183	16.886000
3228.613750	17.228800
3240.374117	16.512900
3234.821567	16.838700
3228.006650	17.238100
3237.432433	16.615100
3239.262167	16.481700
3237.054850	16.581100
3230.718667	16.954800
3230.371367	16.905600
3228.904000	16.947700
3228.218283	16.946600
3228.088217	16.908900
3228.620767	16.855800
3215.169517	17.655600
3222.521683	17.164700
3223.200867	17.008800
3225.094150	16.861300
3225.651433	16.774100
3228.199100	16.611100
3233.354167	16.269000
3227.121883	16.618400
3223.193133	16.673900
3218.841683	16.908200
3228.238667	16.338900
3225.992950	16.476700
3219.206867	16.764600
3217.233133	16.859600
3218.812683	16.709600
3211.371517	17.147100
3212.462483	17.102900
3222.124767	16.518600
3217.159083	16.699100
3206.541400	17.260600
3227.292583	16.006700
3218.119150	16.528600
3210.955100	16.959700
3210.741617	16.958400
3209.456367	17.019000
3206.495917	17.131500
3208.800533	16.971800
3210.457883	16.872800
3203.724200	17.248000
3206.014867	17.048700
3208.784200	16.873600
3212.154433	16.640600
3204.440933	17.088500
3205.211533	17.058800
3216.256583	16.390100
3213.910050	16.333000
3202.068550	17.030800
3211.654867	16.473000
3206.548150	16.732000
3210.846750	16.387000
3210.722567	16.386000
3201.578217	16.877400
3201.387367	16.858800
3197.438600	17.074600
3198.832383	16.972400
3200.736067	16.833600
3207.549217	16.415100
3206.624767	16.294200
3194.868200	16.956700
3200.973650	16.567900
3203.427817	16.417800
3203.801233	16.299800
3198.600533	16.522700
3196.592967	16.605600
3194.642200	16.662700
3193.619650	16.698400
3191.832383	16.787000
3193.264483	16.708700
3192.949717	16.586100
3194.661333	16.434200
3185.117967	16.928700
3192.350767	16.505400
3192.274917	16.514100
3194.411067	16.376100
3179.896700	17.087200
3186.762967	16.692900
3183.985417	16.854300
3191.240367	16.423200
3190.838550	16.341700
3181.032833	16.865300
3191.488583	16.158800
3185.177533	16.547900
3188.937733	16.331900
3188.534033	16.352900
3186.872650	16.425400
3185.164283	16.395500
3185.741383	16.338200
3182.492917	16.502400
3175.359600	16.927900
3172.090450	17.139700
3182.029383	16.541000
3180.526850	16.488700
3174.892933	16.818800
3173.005533	16.883300
3175.293650	16.771600
3178.232117	16.574400
3172.241883	16.912100
3170.983333	17.001500
3172.201100	16.955800
3187.657433	16.029200
3176.297733	16.708100
3169.569083	16.872200
3168.099117	16.888500
3175.148983	16.394900
3172.764850	16.537600
3175.386233	16.352900
3171.279000	16.621600
3179.382817	16.037400
3169.207050	16.578700
3165.821350	16.750600
3168.180867	16.594800
3166.641900	16.670200
3173.575917	16.262400
3163.594983	16.831400
3168.004933	16.423100
3166.858283	16.481000
3162.754217	16.724100
3162.061800	16.755700
