#Y dist(nm)	Y force(pN)
0.000000	0.401400
-5.130467	0.686500
1.672817	0.260000
-0.938450	0.389400
-8.198967	0.708100
-7.596917	0.647500
-7.627333	0.628400
-13.168783	0.962000
-3.123767	0.376600
-5.856600	0.514200
-2.273350	0.085500
-7.761367	0.397000
-3.881800	0.143100
-10.569833	0.532100
-5.558650	0.106500
-15.973817	0.689500
-2.082950	-0.126900
-15.435700	0.631500
-15.891683	0.678200
-12.314150	0.452700
-19.957517	0.835000
-19.456967	0.698500
-11.487117	0.202000
-12.043617	0.241000
-22.389167	0.835000
-19.657850	0.665700
-17.310367	0.501700
-17.682100	0.351300
-14.857817	0.157600
-18.650750	0.364800
-21.478667	0.555700
-30.500350	0.958800
-21.597567	0.414100
-21.307567	0.373600
-26.447083	0.692600
-27.743900	0.777900
-31.544733	0.992300
-26.324400	0.498300
-28.497600	0.625800
-15.467533	-0.172300
-22.378800	0.229800
-25.435667	0.322600
-36.627567	0.931300
-34.193083	0.759500
-34.247483	0.777200
-31.486750	0.593100
-29.966367	0.494500
-39.884383	0.953600
-26.463133	0.113000
-29.050850	0.247800
-35.645733	0.631100
-35.204317	0.567400
-36.309383	0.497600
-36.389317	0.511000
-34.875867	0.387100
-35.435900	0.402000
-40.364533	0.674000
-37.715000	0.507000
-42.572650	0.595800
-42.583233	0.563900
-30.327783	-0.167200
-30.143033	-0.184600
-39.844950	0.255600
-39.703017	0.204100
-43.874733	0.415100
-45.212300	0.483600
-43.709217	0.387700
-38.350017	0.065200
-39.140283	-0.040900
-52.044217	0.653200
-43.118133	0.109100
-51.292500	0.587700
-48.499667	0.419500
-55.622517	0.831400
-51.891717	0.551500
-47.143333	0.147800
-49.914350	0.294000
-50.491767	0.321700
-47.316783	0.111200
-55.365633	0.445700
-55.997050	0.486000
-50.322067	0.114400
-53.307333	0.304100
-55.475133	0.415700
-52.390283	0.228500
-55.071133	0.174200
-57.541267	0.296500
-60.960900	0.485400
-60.349283	0.449300
-66.549517	0.701200
-55.648017	0.023500
-69.548667	0.843400
-67.775283	0.717200
-60.002217	0.247900
-64.378467	0.493600
-65.880067	0.500800
-66.298417	0.484300
-59.403317	0.064300
-68.801550	0.605400
-63.414917	0.277300
-67.685967	0.529600
-56.652967	-0.200300
-58.249333	-0.156400
-60.384433	-0.062500
-61.508217	-0.023300
-71.420383	0.428300
-67.813983	0.131900
-75.366817	0.571000
-80.172750	0.826200
-74.551250	0.501600
-71.763733	0.302600
-72.066100	0.286200
-74.897833	0.287000
-79.369367	0.556900
-81.351083	0.666200
-75.097600	0.270900
-81.163017	0.510100
-78.948433	0.349400
-74.010050	0.031800
-79.998117	0.393700
-83.166850	0.568200
-82.022950	0.501300
-82.815933	0.322400
-87.808550	0.636900
-94.812200	1.098000
-86.947817	0.619600
-89.954483	0.667400
-86.681067	0.429100
-93.763733	0.860900
-85.679067	0.340300
-88.035683	0.461600
-83.450800	0.177900
-88.913267	0.404200
-91.088983	0.421100
-97.252300	0.778500
-92.438667	0.493300
-94.303733	0.596900
-91.990717	0.477100
-95.835800	0.636600
-101.079717	0.820000
-95.069083	0.458300
-93.958633	0.401900
-94.475200	0.411300
-99.650167	0.595000
-97.779433	0.449300
-101.960283	0.678500
-95.230983	0.300200
-96.868200	0.372900
-99.601417	0.531400
-91.651533	-0.034000
-94.136417	0.102400
-94.132533	0.101300
-94.603217	0.095200
-108.172700	0.773700
-102.037017	0.376600
-102.052083	0.349400
-103.434600	0.422100
-103.579167	0.427000
-103.579983	0.409100
-93.345950	-0.324900
-101.261583	0.038300
-112.315733	0.617900
-108.567133	0.444800
-108.932483	0.434300
-106.391233	0.275600
-105.153050	0.117900
-111.165900	0.342900
-110.372733	0.282200
-112.414367	0.383200
-114.953433	0.527300
-118.977433	0.651200
-113.429883	0.303200
-111.620433	0.180500
-119.441883	0.623900
-115.664217	0.374800
-114.236783	0.288200
-122.801183	0.611900
-119.106700	0.371100
-121.038050	0.481500
-119.620017	0.376600
-122.435067	0.429700
-118.070333	0.140600
-124.808700	0.492000
-124.559567	0.513700
-127.422117	0.670300
-127.112433	0.642200
-115.667100	-0.158400
-127.106450	0.440100
-123.376600	0.156300
-129.850550	0.556200
-126.259750	0.329400
-131.960050	0.689700
-124.907317	0.186100
-131.013600	0.421200
-124.764000	0.021300
-133.099567	0.515500
-134.064200	0.545400
-133.981983	0.426500
-133.084783	0.356300
-130.294733	0.174500
-134.655633	0.415100
-132.790800	0.296400
-137.621067	0.567100
-139.932133	0.516500
-141.387000	0.588000
-136.732133	0.303200
-144.052667	0.727300
-146.354033	0.762800
-143.119000	0.548400
-145.312583	0.679100
-135.309850	0.078600
-137.210433	0.182600
-140.847483	0.403100
-131.422767	-0.331400
-138.450283	0.053900
-142.052383	0.267800
-145.714017	0.474700
-148.375350	0.555000
-147.673983	0.425000
-145.419883	0.280100
-148.899683	0.470300
-146.654333	0.327200
-155.373250	0.831600
-150.660817	0.517000
-149.715333	0.301400
-159.726133	0.893900
-151.252933	0.360500
-149.654883	0.270800
-138.779667	-0.390200
-154.884567	0.538900
-152.168400	0.166800
-154.148000	0.272700
-153.243933	0.195200
-158.219133	0.479300
-159.528317	0.437800
-155.366700	0.177300
-149.076683	-0.226900
-152.694600	-0.025500
-150.629650	-0.165900
-151.838567	-0.112700
-157.707450	0.219300
-161.221167	0.437500
-156.604317	0.164200
-158.927217	0.305200
-152.174217	-0.087200
-155.340883	0.076100
-163.389233	0.557600
-161.924017	0.465100
-159.641917	0.336100
-151.285517	-0.154400
-157.964350	0.081000
-167.962400	0.321000
-166.046150	0.193500
-162.473950	-0.074400
-170.045350	0.361200
-173.922767	0.553600
-173.713000	0.531600
-172.095400	0.428100
-170.062067	0.284800
-171.259167	0.345700
-169.608183	0.230600
-178.268833	0.596900
-171.011433	0.138200
-166.106583	-0.187900
-175.419083	0.351200
-176.527333	0.261200
-172.860633	0.029000
-170.006417	-0.146600
-177.346217	0.256000
-179.239600	0.320100
-173.574817	-0.079400
-174.790350	-0.012300
-178.249600	0.208800
-184.019733	0.542000
-183.462100	0.482100
-187.965733	0.769100
-186.778017	0.680800
-184.669383	0.506000
-184.597333	0.424400
-185.749900	0.476700
-182.992217	0.300100
-179.562217	0.071500
-184.801417	0.353200
-181.106967	0.120400
-182.686800	0.205500
-181.828417	0.135400
-182.657717	-0.101600
-190.700733	0.341900
-192.495317	0.426700
-180.104067	-0.333500
-197.977733	0.692600
-189.688017	0.188500
-194.163950	0.438300
-190.787767	0.223600
-192.488233	0.017900
-199.280700	0.422100
-196.499183	0.261200
-192.731333	0.019400
-201.432750	0.470400
-197.759700	0.219900
-203.944533	0.586400
-193.914583	-0.023200
-195.725700	0.065700
-197.816583	0.176000
-190.023617	-0.413300
-194.946367	-0.219500
-204.355033	0.347600
-203.703900	0.285900
-197.809067	-0.057800
-200.503600	0.053700
-204.179317	0.273100
-201.651650	0.123300
-204.693717	0.264700
-205.061817	0.051400
-207.601900	0.157800
-204.986117	-0.036200
-216.805767	0.650200
-207.210183	0.052700
-202.013467	-0.261800
-203.474967	-0.200300
-214.130167	0.435100
-215.484033	0.282200
-207.666567	-0.232400
-210.868283	-0.059800
-214.490867	0.142600
-221.275683	0.446000
-216.579250	0.098100
-215.109283	-0.001000
-216.824950	0.089100
-218.618133	0.180200
-222.594000	0.400200
-223.559767	0.532000
-219.669967	0.419200
-210.335083	-0.142600
-206.070950	-0.417300
-209.275800	-0.252000
-220.203700	0.389700
-217.647150	0.226800
-218.732767	0.280300
-219.593250	0.318900
-211.188350	-0.174600
-212.744300	-0.042000
-219.543417	0.590800
-217.015517	0.473800
-212.863050	0.229800
-211.826900	0.145800
-209.258250	0.113100
-210.373117	0.206200
-217.334083	0.647000
-209.889500	0.188700
-206.572183	-0.008500
-212.855600	0.357000
-205.837517	0.048400
-214.049217	0.548200
-208.096567	0.235000
-206.808633	0.161600
-201.736483	-0.153100
-205.953917	0.082300
-210.628317	0.436600
-209.861717	0.430300
-206.260917	0.237400
-204.043133	0.155000
-201.761717	-0.027200
-198.422950	-0.232500
-204.778817	0.123400
-203.074517	0.087400
-202.714350	0.027000
-200.451167	-0.107900
-200.987717	-0.061700
-205.140150	0.290400
-201.149617	0.052300
-201.377967	0.114400
-196.668200	-0.173400
-191.748350	-0.487500
-196.211117	-0.234800
-194.581750	-0.249300
-207.561800	0.564900
-206.313100	0.555000
-197.674750	0.021600
-207.360500	0.591000
-204.369517	0.430900
-202.857517	0.401800
-198.717150	0.247500
-211.593433	1.010000
-198.291033	0.239600
-202.781617	0.534700
-198.218867	0.340600
-195.251800	0.201300
-194.983333	0.221000
-203.218683	0.709100
-202.134700	0.623100
-194.315450	0.160200
-187.697800	-0.073200
-193.420083	0.262100
-196.714850	0.492000
-196.686067	0.493600
-201.464933	0.780200
-188.513050	0.004200
-182.293017	-0.225800
-181.988850	-0.268200
-192.993450	0.392400
-186.434383	-0.011500
-201.245567	0.957100
-193.091150	0.501900
-184.703683	0.010400
-191.292783	0.431300
-190.447467	0.387100
-186.868867	0.178600
-192.627867	0.530200
-197.422083	0.822500
-197.638333	0.874400
-182.779700	0.070800
-193.518333	0.755000
-184.983167	0.210400
-194.936000	0.816300
-186.949050	0.391200
-182.604250	0.147600
-182.908583	0.203000
-187.706017	0.468400
-187.909183	0.480500
-188.228467	0.501700
-190.985033	0.771500
-184.021133	0.381500
-186.476033	0.557600
-184.216383	0.444800
-177.050850	0.016800
-179.505667	0.142000
-186.307983	0.590600
-179.696767	0.222100
-191.767817	0.957100
-179.096517	0.185200
-172.199767	-0.151400
-176.496900	0.187800
-178.472333	0.303200
-177.414467	0.280300
-179.468117	0.385600
-177.461450	0.294000
-167.568967	-0.296600
-177.761367	0.415600
-169.889650	-0.049500
-175.564983	0.277400
-178.208667	0.418600
-180.769267	0.708400
-176.765700	0.489000
-174.060383	0.362600
-175.598000	0.435000
-166.448150	-0.091200
-168.779650	0.045000
-169.786167	0.212500
-166.738333	0.057800
-173.966650	0.517200
-167.534067	0.127300
-168.336067	0.196300
-170.969667	0.357400
-169.517433	0.347600
-171.017233	0.476900
-167.851167	0.304000
-165.455683	0.182300
-165.896200	0.218400
-171.344383	0.551300
-180.876667	1.183600
-161.380500	0.080700
-160.783067	0.036100
-163.168633	0.184100
-165.775533	0.338900
-158.726700	0.042900
-159.581450	0.080100
-160.714800	0.182100
-165.132733	0.457100
-163.516717	0.356800
-164.827317	0.411100
-171.232717	0.900400
-169.908883	0.851300
-157.876883	0.155000
-162.398417	0.409600
-160.960150	0.339900
-174.525900	1.149600
-161.561317	0.520000
-158.088933	0.303800
-152.874717	-0.016700
-155.836717	0.171400
-155.000617	0.235000
-152.658417	0.079000
-159.516733	0.508400
-151.944067	0.049600
-154.392250	0.221400
-144.744850	-0.257700
-149.549500	0.015900
-157.235800	0.502500
-154.311083	0.311900
-156.579550	0.480900
-158.207883	0.593600
-152.322483	0.250700
-160.926967	0.770800
-163.969233	0.968000
-164.322033	0.989900
-148.706983	0.271700
-159.813983	0.911600
-157.872883	0.804800
-157.750417	0.777700
-147.923567	0.215800
-151.312067	0.439600
-155.872667	0.730000
-154.272067	0.632800
-156.661883	0.904100
-150.135700	0.542100
-140.370083	-0.070900
-153.468983	0.720800
-153.381167	0.750100
-152.692100	0.742500
-152.859683	0.797000
-140.993367	0.139300
-150.107650	0.668700
-147.711500	0.526500
-142.292617	0.250000
-141.907067	0.322300
-152.034317	0.940300
-147.365267	0.681700
-151.112383	0.911600
-153.229583	1.044200
-152.384600	0.983400
-143.703033	0.627800
-145.913667	0.761500
-138.825250	0.401100
-143.119467	0.671200
-148.579217	1.014700
-140.773817	0.525700
-144.499833	0.880100
-138.933050	0.555600
-136.200433	0.398300
-131.872383	0.131300
-141.467100	0.848700
-142.178717	0.874300
-140.015700	0.757800
-134.327083	0.416000
-140.916517	0.832900
-137.108417	0.645400
-135.906700	0.592500
-140.746200	0.899700
-124.755150	-0.056700
-135.660017	0.594700
-136.557067	0.644500
-129.682250	0.296400
-126.697450	0.120300
-126.961100	0.160200
-134.011167	0.577600
-134.374900	0.619800
-130.421633	0.368000
-140.562183	1.055000
-136.721000	0.827700
-133.407167	0.694300
-135.834917	0.838900
-131.483950	0.562500
-131.145717	0.582700
-123.523283	0.210800
-127.102133	0.458300
-119.854300	0.107400
-128.321183	0.614000
-123.317600	0.320400
-125.741267	0.471700
-120.731133	0.282200
-124.360450	0.522300
-124.066750	0.523500
-112.134217	-0.182600
-127.054283	0.723800
-129.171717	0.937000
-121.177150	0.499200
-124.824233	0.720800
-117.110417	0.275200
-122.719867	0.617200
-119.335933	0.434300
-119.953117	0.558700
-118.793133	0.493100
-123.939667	0.835900
-122.125517	0.758200
-119.059500	0.563100
-115.288433	0.331400
-118.486283	0.641000
-115.165250	0.435900
-120.652350	0.785700
-121.688317	0.868000
-109.863917	0.254500
-123.249283	1.063100
-116.334267	0.743800
-115.405117	0.641500
-107.442200	0.166800
-110.774450	0.371700
-112.745017	0.561400
-110.862883	0.521000
-108.071117	0.373600
-102.940700	0.084900
-115.080850	0.782700
-108.267100	0.385200
-115.043483	0.831200
-112.996167	0.799300
-107.388217	0.480700
-108.449250	0.575100
-102.051717	0.200500
-110.452433	0.694100
-111.221433	0.765500
-109.811983	0.826700
-105.894883	0.586400
-109.355483	0.836900
-103.989367	0.499300
-101.654217	0.495100
-102.861883	0.588500
-107.760933	0.911600
-103.903367	0.681400
-100.896850	0.523500
-105.842817	0.788200
-102.356267	0.629200
-105.631367	0.841300
-99.579300	0.523500
-105.269200	0.850500
-106.999600	0.973200
-104.787167	0.854800
-102.571100	0.774300
-100.577133	0.758000
-100.659767	0.754300
-108.690433	1.243100
-98.564217	0.678700
-98.143983	0.792500
-103.922617	1.128100
-96.035017	0.724000
-91.882833	0.478700
-91.720483	0.455900
-94.145333	0.579200
-95.940300	0.717600
-97.752800	0.839700
-98.147900	0.887100
-100.243517	1.037500
-95.062400	0.725100
-93.011633	0.605300
-95.013250	0.756900
-97.762217	0.930400
-101.201983	1.194800
-96.181783	0.881300
-94.982500	0.869700
-96.625000	0.987300
-97.741883	1.122500
-94.799950	0.994200
-95.674483	1.053200
-90.621617	0.766900
-88.221500	0.646500
-85.917067	0.588100
-83.153850	0.438300
-82.368950	0.429900
-89.875533	0.867200
-90.188450	0.892500
-87.162250	0.738900
-89.168183	0.992900
-79.269683	0.425600
-87.542117	0.895300
-91.682950	1.178100
-87.544533	1.052900
-88.779250	1.141500
-91.747883	1.369700
-75.115133	0.390200
-86.360533	1.038800
-85.328200	0.969000
-78.099500	0.574200
-76.223417	0.472900
-85.423967	1.079500
-82.163750	0.873900
-74.024417	0.406000
-78.917317	0.703000
-76.917867	0.722800
-80.667050	0.937500
-69.859150	0.268200
-72.474617	0.459100
-72.016700	0.471900
-72.799950	0.588900
-72.603767	0.590200
-79.779067	1.058500
-76.918833	0.890600
-79.634533	1.071200
-80.821633	1.157300
-74.482050	0.838200
-72.252567	0.722800
-77.894033	1.060400
-79.731800	1.184400
-70.916450	0.674700
-77.297133	1.064600
-78.148350	1.173900
-71.905933	0.813500
-70.305650	0.735600
-71.036833	0.789500
-65.324333	0.555800
-71.632150	0.991500
-65.981333	0.687800
-68.348617	0.844000
-66.992050	0.757800
-64.078683	0.586400
-66.677817	0.814000
-65.678817	0.830200
-60.425717	0.536800
-59.077650	0.484200
-60.710500	0.580500
-59.009650	0.492000
-65.895533	0.927800
-67.486150	1.131900
-68.940883	1.247300
-59.282450	0.725700
-65.663800	1.094100
-65.355700	1.077600
-64.029867	1.003600
-65.253250	1.138500
-58.736767	0.745600
-65.644367	1.168600
-62.652800	1.005300
-65.304133	1.278800
-53.845700	0.643800
-65.043567	1.392400
-66.762500	1.502100
-62.726917	1.270900
-52.330683	0.639500
-60.342717	1.214800
-57.692583	1.105700
-47.212067	0.533200
-54.642050	0.990600
-56.270683	1.061300
-54.210133	0.964100
-55.970150	1.083000
-55.009450	1.036800
-58.834000	1.293000
-54.282450	1.039500
-59.302583	1.351100
-57.161333	1.278200
-53.724733	1.102100
-48.321000	0.798000
-53.007767	1.083700
-54.018350	1.171200
-56.182250	1.300500
-49.453217	1.017100
-42.637367	0.637000
-45.586867	0.874900
-46.971883	0.961400
-44.684183	0.825200
-39.363000	0.509700
-46.299417	1.045900
-41.839050	0.767100
-42.479017	0.804100
-37.324350	0.499500
-38.043350	0.635700
-37.697367	0.647800
-35.707850	0.534000
-42.641833	0.939800
-42.678983	0.974600
-42.349700	0.956700
-39.628000	0.847200
-44.545033	1.215800
-38.580883	0.882800
-43.430950	1.217100
-40.367033	1.029800
-41.118217	1.094800
-39.028250	0.969300
-38.949817	1.078000
-38.838083	1.095800
-33.524300	0.775200
-36.997233	1.025300
-30.369083	0.739100
-26.831150	0.517500
-26.412033	0.516800
-36.302350	1.092600
-34.603667	1.028200
-37.013917	1.160200
-30.514250	0.898500
-26.492433	0.696200
-29.306133	0.910100
-30.490900	0.975300
-35.347317	1.276300
-20.957850	0.428400
-25.786317	0.906400
-37.929617	1.589800
-29.593183	1.086500
-23.613517	0.738100
-18.644150	0.523500
-28.065000	1.120200
-25.578050	0.992400
-26.814650	1.087200
-22.041000	0.838200
-24.052067	0.895900
-23.657517	0.885400
-27.070600	1.083000
-23.028733	0.854300
-18.338650	0.729300
-20.950450	0.891300
-13.309367	0.415300
-16.140167	0.576700
-19.362417	0.855400
-22.234117	1.048000
-21.075617	0.995500
-20.682100	0.976500
-9.556367	0.430900
-17.988767	0.941800
-16.382533	0.841700
-20.498683	1.088000
-18.414883	0.983600
-16.802633	0.908300
-22.113983	1.359200
-11.121750	0.708000
-18.474683	1.103900
-20.080567	1.233700
-15.920100	1.089900
-16.464333	1.193600
-10.578100	0.862200
-11.822400	0.957900
-16.856050	1.252500
-15.301367	1.159600
-12.501317	1.015900
-4.442633	0.653300
-7.484700	0.825900
-5.923350	0.748500
-10.081783	1.010600
-9.113050	0.971100
-8.763483	0.926900
-12.241433	1.180400
-3.230000	0.678600
-16.490667	1.513000
-9.263533	1.096700
-8.118383	1.051700
-1.048183	0.616700
-2.491100	0.767400
-9.335850	1.195500
4.023933	0.429100
-6.600933	1.050200
-8.106000	1.211100
-3.468400	1.024800
-11.301600	1.507800
-1.441600	0.959400
-9.271683	1.427600
-5.802800	1.225200
1.585400	0.842400
-1.776817	1.159900
2.315250	0.939600
2.897750	0.931800
6.070967	0.747500
1.155633	1.036300
-7.685400	1.582200
1.797933	1.170400
4.971000	0.982800
-1.448617	1.367500
6.968133	0.878500
6.261117	1.020800
4.633867	1.091900
12.420083	0.700300
9.606917	0.854300
11.384700	0.757800
3.534117	1.218800
7.414333	1.075300
15.377500	0.631200
15.003350	0.736800
12.494450	0.878700
12.434150	0.863400
5.397767	1.286600
11.791600	1.029600
13.087967	0.964100
15.534450	0.838200
15.386583	0.841900
9.924050	1.212300
19.154183	0.747100
14.432100	1.038300
14.487167	1.078100
13.851133	1.129900
15.150133	1.059100
23.122083	0.601300
18.732150	0.979800
18.275700	1.015200
21.212867	0.853400
27.201567	0.490400
20.491100	0.935700
22.039117	0.856400
15.770017	1.260800
16.529433	1.211200
19.716283	1.072000
16.080033	1.299100
32.060150	0.460500
21.694350	1.098900
19.871517	1.270400
25.919467	0.911600
29.107683	0.733300
24.529917	0.992600
26.790167	0.947900
25.277850	1.080000
30.931600	0.785700
34.038683	0.602800
28.429483	0.927400
27.307850	1.011300
32.054217	0.734000
28.613967	0.965900
21.848900	1.371300
32.327083	0.801100
31.121650	0.869700
31.720700	0.838200
28.016000	1.063200
33.267583	0.909700
36.753033	0.713800
23.499283	1.504900
25.064400	1.413600
25.723133	1.494700
30.113967	1.274300
28.516850	1.424100
29.618483	1.373200
27.142567	1.536800
34.947100	1.082700
36.459317	1.086200
34.761983	1.233100
36.817250	1.143300
42.409033	0.843100
35.993917	1.215800
42.709717	0.825800
49.303867	0.526100
47.798250	0.631500
48.261033	0.605800
42.475400	0.946800
44.814750	0.827700
47.367517	0.760400
48.374133	0.697000
46.703650	0.838200
48.122100	0.747600
44.614567	0.942500
43.039467	1.042700
45.428067	1.017800
52.241600	0.645300
49.938150	0.790200
45.843833	1.014100
51.805300	0.784500
47.295017	1.084700
48.011033	1.087300
43.074717	1.343600
37.786583	1.656400
44.807283	1.265800
