#Y dist(nm)	Y force(pN)
3571.475633	20.580400
3591.762050	19.340100
3598.310600	19.000200
3593.808700	19.341900
3597.415317	19.165700
3599.882100	19.050300
3599.137850	19.123800
3594.824917	19.409600
3590.416517	19.702700
3603.077767	19.162100
3599.400867	19.397000
3598.643283	19.472800
3597.689300	19.527600
3601.701200	19.452000
3604.084350	19.384500
3601.903933	19.622800
3611.656250	19.018200
3609.824283	19.129300
3605.461950	19.402200
3616.829733	18.839800
3612.884750	19.124100
3615.692500	19.020000
3617.367033	18.964900
3617.019367	18.980600
3612.742600	19.266900
3614.756283	19.239700
3616.717917	19.237700
3616.200017	19.295300
3620.075083	19.097800
3614.600250	19.434000
3622.323367	18.997700
3619.465517	19.204700
3624.730167	18.959300
3623.495617	19.040000
3621.917300	19.140600
3623.045783	19.105300
3618.454783	19.457200
3622.830017	19.206200
3624.168417	19.228700
3622.690150	19.372800
3622.370917	19.443500
3625.468733	19.267000
3632.125200	19.007700
3638.408017	18.697700
3630.136433	19.321600
3631.978083	19.197400
3625.843717	19.588400
3621.048283	19.887400
3632.499367	19.316300
3634.760417	19.208000
3634.148833	19.290100
3632.584733	19.409800
3639.806800	19.057800
3636.663883	19.300000
3639.166200	19.182000
3636.995167	19.356500
3637.420017	19.385300
3638.976167	19.326800
3640.399167	19.311800
3638.366367	19.574600
3647.913717	19.029500
3640.565267	19.550600
3644.774500	19.309500
3656.576217	18.605900
3642.835850	19.477200
3659.699017	18.615200
3655.131000	18.906900
3649.047450	19.303200
3649.914983	19.260700
3644.151867	19.762100
3650.852633	19.421200
3651.351517	19.478900
3653.927733	19.331500
3661.180950	18.914700
3656.030083	19.226500
3653.320250	19.578600
3654.825533	19.505500
3656.438217	19.417700
3654.288483	19.562800
3660.425033	19.325800
3664.977617	19.144400
3663.627767	19.246400
3658.371633	19.615900
3661.396550	19.437000
3663.242967	19.379300
3659.263217	19.643300
3661.153017	19.555400
3666.644950	19.272300
3657.374450	19.929300
3662.142150	19.669800
3660.386067	19.793000
3661.580017	19.764800
3668.511283	19.534900
3670.384550	19.437600
3677.778467	18.999200
3669.436667	19.520900
3675.986783	19.278400
3673.255317	19.462400
3672.929433	19.558900
3671.866300	19.637100
3671.879900	19.657200
3674.742583	19.503400
3688.056100	18.755100
3668.982783	19.945000
3678.801400	19.384500
3673.404867	19.711100
3661.524533	20.569900
3673.734750	19.853400
3678.133783	19.654000
3676.661083	19.774600
3684.313400	19.395000
3679.344867	19.718900
3679.399783	19.735600
3679.946183	19.695700
3680.546550	19.726200
3687.373567	19.477400
3684.490583	19.685500
3690.128950	19.354800
3690.566717	19.371800
3678.677300	20.250900
3688.661350	19.689600
3695.069117	19.378700
3690.942517	19.619900
3676.641150	20.499600
3693.019900	19.561200
3692.895217	19.704800
3695.284767	19.612700
3697.429350	19.557600
3696.172083	19.619800
3703.909300	19.167900
3699.644200	19.419900
3689.208083	20.223700
3699.391067	19.640000
3697.304933	19.765600
3697.330067	19.783700
3695.774850	19.983900
3699.899883	19.842100
3705.498867	19.532000
3702.875067	19.728800
3709.484900	19.356900
3703.467417	19.749200
3714.859633	19.123900
3707.277150	19.718400
3704.561950	19.912800
3699.894800	20.226900
3697.818817	20.358200
3705.301717	20.063300
3713.256100	19.638900
3709.404150	19.912200
3708.284867	19.987700
3701.749383	20.395000
3705.788317	20.195300
3718.122250	19.628700
3717.193583	19.719400
3714.616600	19.954500
3710.771667	20.193500
3709.163500	20.300100
3718.532250	19.762800
3716.665233	19.762900
3715.896633	19.820800
3714.973933	19.904500
3720.565950	19.543800
3714.481417	19.930700
3712.667700	20.054700
3710.456233	20.197000
3711.037850	20.166900
3718.231333	19.727500
3715.105350	19.821300
3707.799617	20.238200
3710.014650	20.076900
3702.310283	20.515300
3702.814867	20.475500
3707.972200	20.170500
3701.942800	20.524800
3705.624867	20.299100
3702.596167	20.476100
3707.254017	20.210600
3708.116083	20.156800
3702.577400	20.486700
3710.847250	19.986300
3709.058017	20.087300
3697.367267	20.408600
3707.406417	19.767800
3704.809683	19.928800
3704.133417	19.966400
3715.090117	19.160000
3696.954150	20.218500
3694.301533	20.417800
3700.060783	20.093200
3706.666733	19.623700
3703.167800	19.768800
3709.966717	19.347800
3711.561967	19.263500
3706.678700	19.543500
3706.464300	19.547100
3704.592617	19.640600
3698.598183	19.932100
3700.351350	19.825800
3706.357500	19.467000
3699.279633	19.900000
3699.852733	19.859200
3708.291400	19.354500
3698.578200	19.958100
3701.520350	19.750800
3690.120383	20.189200
3694.937017	19.875800
3698.434067	19.650500
3694.544483	19.909000
3698.565500	19.681200
3700.822850	19.523700
3696.815783	19.760200
3700.036317	19.577000
3691.919700	19.720200
3692.481300	19.695300
3695.806633	19.482100
3692.512750	19.698600
3679.414750	20.460600
3687.636133	19.933900
3692.492183	19.643500
3690.922167	19.733000
3693.426817	19.610900
3694.351317	19.537100
3686.629550	19.992900
3688.352450	19.892100
3690.569433	19.756900
3687.774200	19.916400
3687.033017	19.955000
3696.180433	19.411900
3693.008800	19.592100
3696.410750	19.383900
3689.561350	19.760700
3693.038833	19.076500
3688.894667	19.305200
3689.741283	19.212100
3685.164067	19.471400
3678.918733	19.731700
3684.105883	19.407400
3684.303067	19.389800
3680.084917	19.632200
3681.313383	19.572700
3687.264700	19.233900
3682.729383	19.336000
3676.146783	19.671700
3682.055550	19.305000
3685.040933	19.130500
3682.220183	19.269100
3685.450633	19.074400
3684.197533	19.153000
3681.657183	19.324900
3681.836117	19.265300
3676.257567	19.492700
3671.458683	19.763800
3666.530350	20.031600
3673.541517	19.606400
3674.757900	19.493700
3677.890333	19.321600
3677.908150	19.295700
3677.420183	19.313500
3679.685383	19.158700
3674.690333	19.457200
3675.762750	19.394100
3680.579850	19.085100
3670.630317	19.681400
3669.992583	19.719400
3667.354233	19.534300
3675.133017	18.992000
3667.688617	19.412000
3668.760600	19.353000
3670.087933	19.252300
3667.946733	19.360000
3665.432633	19.424500
3664.696317	19.460900
3654.842483	20.075500
3666.246567	19.376600
3670.684767	19.113500
3666.340817	19.383500
3665.856717	19.406900
3670.966733	19.086700
3664.971050	19.325100
3658.995150	19.480800
3665.703783	19.074400
3653.379867	19.793000
3653.700717	19.782200
3656.084900	19.503600
3651.361967	19.775900
3651.405917	19.733300
3650.285550	19.784400
3661.325167	19.143200
3647.283433	19.980700
3655.195617	19.326800
3653.416633	19.425700
3648.828717	19.711400
3657.940733	19.168300
3649.034133	19.570900
3643.354250	19.881300
3646.153550	19.724700
3639.917883	20.117500
3656.674533	19.114000
3655.905183	19.149700
3650.627167	19.298300
3649.772833	19.302400
3638.099683	19.978900
3641.208367	19.793000
3648.956883	19.323100
3652.265633	19.124500
3647.288617	19.216700
3647.417700	19.200600
3645.123600	19.353000
3647.752183	19.197700
3647.854483	19.159000
3645.470200	19.181700
3640.363367	19.471700
3645.454917	19.186700
3642.218933	19.391500
3642.651267	19.389800
3644.629183	19.288300
3645.346733	19.140100
3642.624133	19.291000
3643.660717	19.226600
3644.023683	19.186000
3638.581650	19.354800
3640.655967	19.193600
3646.237567	18.839000
3638.574117	19.288100
3642.952583	19.049500
3644.441300	18.961200
3654.858517	18.332000
3641.541883	19.142500
3643.993583	18.985900
3641.727200	19.115100
3633.796883	19.554700
3632.225583	19.525300
3643.375983	18.841000
3640.840833	18.964900
3636.391917	19.223900
3626.488383	19.790800
3634.244467	19.317200
3632.290867	19.429400
3630.697933	19.459600
3631.626400	19.120500
3640.193833	18.562300
3640.859267	18.467600
3632.257933	18.960400
3625.176050	19.369800
3627.722250	19.225800
3630.020000	19.078200
3632.612183	18.917200
3625.868517	19.032800
3617.142667	19.499900
3612.575417	19.762100
3625.928983	18.949900
3624.882900	19.025400
3623.249733	19.115800
3625.758500	18.968400
3628.059900	18.826200
3620.695933	19.269100
3622.945950	19.132800
3624.349250	18.890400
3617.121200	19.193400
3621.065650	18.926400
3620.109767	18.916100
3621.425517	18.846500
3625.828533	18.584500
3618.355100	19.018800
3616.971967	19.084700
3623.670933	18.641200
3624.354067	18.470600
3627.198350	18.285300
3625.035617	18.383000
3627.615700	18.206100
3617.267983	18.783400
3617.062533	18.790300
3623.895083	18.378700
3613.693533	18.993400
3609.625983	18.975400
3617.302200	18.429900
3613.001533	18.675700
3613.426783	18.646300
3609.324967	18.896000
3606.485800	19.070400
3616.290917	18.262100
3608.931367	18.699200
3605.733983	18.883600
3606.054483	18.852100
3607.050483	18.720100
3607.201350	18.674700
3620.059867	17.890400
3613.853033	18.237400
3614.045317	18.212300
3602.070167	18.913100
3611.317433	18.354100
3603.078933	18.854800
3598.334117	19.033100
3602.831600	18.529200
3599.696667	18.713900
3603.907950	18.465300
3600.399067	18.682400
3607.606167	18.220100
3601.604683	18.588100
3601.345767	18.598400
3606.394100	18.303300
3602.060750	18.241800
3588.729000	19.034100
3586.530667	19.189100
3593.617050	18.769500
3600.058833	18.376300
3594.330850	18.723600
3583.558367	19.174700
3589.636100	18.812100
3591.850350	18.677400
3595.622000	18.443400
3589.861767	18.678200
3587.287667	18.781100
3592.927500	18.450900
3583.238117	19.022900
3587.781283	18.773800
3590.310833	18.629200
3585.222300	18.955800
3580.916967	19.228700
3578.255017	19.288400
3578.613883	19.169200
3588.794133	18.546100
3583.521033	18.854800
3591.235867	18.407300
3586.166950	18.706200
3590.353567	18.435500
3587.342050	18.596100
3585.883583	18.596800
3583.916333	18.402400
3584.621783	18.341200
3584.702200	18.319800
3586.397067	18.219200
3582.853817	18.435200
3576.532217	18.828500
3577.451900	18.594300
3576.583633	18.643000
3579.007817	18.493400
3580.536583	18.383500
3576.174883	18.520300
3579.557517	18.281900
3580.725467	18.215600
3584.931133	17.957200
3579.170700	18.290400
3578.730667	18.317300
3580.250900	18.094200
3573.275167	18.545300
3575.176667	18.414500
3576.375567	18.336200
3578.340950	18.157200
3570.743083	18.499300
3573.436617	18.329600
3581.272883	17.848600
3574.897283	18.235900
3576.497467	18.154400
3576.771117	18.110000
3568.822633	18.421900
3574.902567	18.041000
3570.832467	18.262100
3569.047383	18.370000
3570.751050	18.253500
3577.523250	17.840100
3579.323167	17.722400
3579.544167	17.693900
3566.343633	18.336100
3572.074917	17.960900
3565.033450	18.358800
3565.131683	18.341200
3572.679650	17.832000
3572.338400	17.866500
3556.858017	18.780800
3566.024233	18.229300
3570.855917	17.620100
3554.876467	18.530900
3563.826317	17.965400
3562.031367	18.085700
3554.162833	18.481300
3556.247850	18.256500
3553.263333	18.438400
3556.048283	18.275800
3551.035450	18.563100
3552.916900	18.463500
3557.190283	18.172000
3552.473500	18.281700
3556.040583	18.046300
3560.178150	17.788800
3563.472150	17.538300
3554.303750	18.116400
3553.526833	18.172900
3556.956083	17.962600
3557.088467	17.926400
3553.800417	17.884400
3543.242883	18.484000
3554.504900	17.800500
3546.742350	18.235500
3548.158083	18.151900
3550.118550	18.026100
3551.125667	17.964200
3544.416367	18.365300
3548.668100	17.790000
3543.963583	18.052900
3543.604350	18.043800
3541.981700	18.147900
3541.538450	18.084600
3536.837883	18.286600
3545.072350	17.811000
3544.214383	17.877400
3548.148100	17.658900
3546.340733	17.749900
3541.015483	18.039400
3540.565433	18.020200
3539.264083	18.078100
3542.732000	17.878500
3537.787667	18.181400
3534.178250	18.398400
3530.663983	18.632200
3538.198783	18.184000
3540.140617	18.056900
3531.873267	18.250400
3524.532783	18.639700
3529.911267	18.295400
3538.922467	17.763800
3522.851983	18.704200
3528.940950	18.351900
3535.744717	17.936900
3530.985467	18.223100
3527.372483	18.389500
3534.830850	17.967000
3526.988467	18.283100
3527.471550	18.113400
3538.187017	17.330300
3531.309700	17.698200
3525.827433	18.031300
3528.669650	17.853000
3527.166017	17.933900
3526.837433	17.954800
3525.508750	17.964900
3526.702000	17.719500
3531.916750	17.392200
3525.663033	17.755300
3523.072583	17.903200
3517.683967	18.219500
3525.229567	17.765900
3530.112500	17.473500
3523.375000	17.863500
3519.160883	17.828800
3517.332083	17.935000
3516.326083	18.002500
3515.074617	18.107900
3509.655633	18.296200
3508.542667	18.312800
3517.506483	17.780800
3517.257517	17.790800
3517.564167	17.760500
3510.692800	18.168300
3514.882083	17.776300
3514.446617	17.715200
3507.949833	18.126400
3515.350700	17.682000
3507.083833	18.172900
3508.934450	18.071400
3511.259617	17.903000
3511.708517	17.888900
3510.204367	17.825900
3505.256867	17.927600
3508.606167	17.741900
3512.804600	17.471100
3501.544900	18.146700
3508.140067	17.759300
3506.019483	17.906800
3504.747000	17.964900
3508.984283	17.676700
3504.408667	17.652800
3503.723117	17.675300
3507.895233	17.411800
3506.072700	17.500800
3500.555900	17.700900
3499.011550	17.761800
3498.367017	17.802800
3502.347933	17.560000
3496.764033	17.901400
3496.577667	17.896100
3498.359733	17.731000
3494.641917	17.936900
3504.822167	17.311400
3506.100817	17.229500
3500.873150	17.527800
3498.841450	17.657400
3495.764367	17.850200
3502.607433	17.430700
3481.947583	18.356500
3491.299267	17.798000
3492.820700	17.697000
3497.817800	17.387100
3498.413517	17.292200
3492.807217	17.519300
3495.304233	17.368900
3496.730433	17.269000
3493.538900	17.457300
3485.986150	17.927100
3494.632767	17.403800
3499.560150	17.100000
3491.765483	17.550700
3493.144267	17.436500
3493.915650	17.360700
3494.707117	17.209400
3483.017533	17.872600
3484.164600	17.804700
3484.700217	17.750300
3480.649700	17.985300
3485.313050	17.709300
3480.529533	17.870500
3479.729167	17.891000
3484.989400	17.566500
3483.093750	17.655600
3479.317233	17.713600
3482.234700	17.475900
3487.470150	17.160600
3488.497683	17.065600
3485.138517	17.239700
3481.110283	17.464300
3481.778133	17.300200
3476.009500	17.542800
3480.346350	17.282700
3480.243300	17.289000
3473.657633	17.665900
3473.269083	17.666200
3469.063150	17.889300
3463.569050	18.219600
3467.441433	17.984500
3477.565433	17.207800
3473.523450	17.434800
3473.206133	17.435200
3461.077133	18.153100
3465.844650	17.768400
3465.732967	17.736800
3466.287550	17.699100
3465.915800	17.690400
3475.966200	17.067600
3469.018117	17.476400
3460.738717	17.926400
3469.325783	17.430700
3468.052583	17.509600
3469.459233	17.411800
3453.698233	17.989300
3459.922600	17.572800
3461.526317	17.473400
3471.069550	16.884000
3463.704050	17.288400
3463.525033	17.147200
3450.826867	17.894300
3462.407617	17.190200
3462.564283	17.162200
3459.650067	17.318000
3459.492117	17.340500
3460.127550	17.317500
3462.374617	17.167100
3454.142183	17.492800
3451.995717	17.616200
3452.183650	17.583900
3454.527300	17.428500
3454.167017	17.297000
3448.694650	17.574600
3447.553300	17.614200
3451.479667	17.387900
3455.187883	17.159200
3461.235067	16.790600
3464.417600	16.594200
3463.805167	16.598900
3465.474783	16.472800
3461.495200	16.708200
3454.080383	16.871800
3446.945867	17.201300
3438.847883	17.664100
3449.230033	17.044600
3442.454417	17.474600
3442.338000	17.457000
3441.043833	17.539000
3443.387300	17.407800
3445.948417	17.189900
3438.564650	17.458800
3439.355117	17.410100
3447.622617	16.904900
3442.990967	17.153000
3443.728817	16.912700
3438.169167	17.255000
3441.726900	17.043300
3440.677617	17.099900
3433.871000	17.377800
3432.313750	17.441100
3437.621133	17.111500
3430.236367	17.587700
3432.079350	17.475300
3424.263267	17.946200
3434.422083	17.359900
3428.140983	17.750800
3435.311500	17.319600
3435.529483	17.311900
3434.919533	17.066200
3434.652783	17.002600
3440.811383	16.620700
3439.630467	16.689800
3436.697250	16.877400
3443.993483	16.412800
3439.983567	16.645700
3434.408767	16.960100
3432.750683	16.988800
3436.477417	16.659200
3429.596233	17.045200
3428.598517	17.064800
3424.494267	17.298500
3421.027267	17.486600
3427.491300	17.093700
3431.128583	16.831900
3422.532133	17.319700
3419.041767	17.355200
3419.990667	17.275100
3421.458683	17.135500
3421.617917	17.113100
3420.898850	17.146200
3420.749583	17.163400
3420.923367	17.152100
3419.754383	17.218300
3417.806967	17.167400
3413.322617	17.373500
3420.852100	16.911900
3424.340300	16.693500
3424.612117	16.676600
3427.431483	16.492600
3420.572667	16.872200
3411.974683	17.401300
3412.888500	17.213100
3414.446567	17.123900
3416.795900	16.942200
3423.484917	16.472600
3422.544100	16.499100
3415.711583	16.850500
3420.591283	16.532500
3413.499717	16.952900
3421.984950	16.442100
3411.728417	17.017400
3413.133450	16.911900
3418.064867	16.434200
3415.432983	16.564900
3412.836717	16.709600
3408.397267	16.950800
3402.765450	17.284200
3409.532550	16.889400
3412.763333	16.685500
3410.271783	16.828900
3404.266967	16.927400
3400.657917	17.069000
3399.923317	17.110100
3406.458217	16.706600
3417.609583	16.012000
3404.868617	16.787600
3404.542317	16.811000
3404.750833	16.790200
3388.689283	17.514100
3402.171683	16.589200
3392.755700	17.116800
3393.139767	17.048900
3395.859517	16.883300
3401.937717	16.501700
3397.335183	16.762000
3395.191633	16.876000
3398.434167	16.678100
3388.897067	17.261300
3388.003333	17.290000
3384.522450	17.332800
3391.500217	16.921100
3391.125067	16.925300
3384.548867	17.325500
3393.314100	16.801800
3390.185450	16.986000
3398.207550	16.512900
3387.251350	17.170200
3390.467467	16.992200
3399.769217	16.403600
3390.172167	16.658300
3385.983683	16.834000
3382.317283	17.055700
3383.767017	16.967300
3381.504833	17.118700
3386.368367	16.819700
3382.568817	17.053100
3384.410417	16.937900
3377.702167	17.255000
3385.269183	16.672600
3376.591650	17.119500
3374.945733	17.176900
3385.622267	16.526000
3381.763283	16.733200
3378.948133	16.889800
3371.984483	17.299600
3377.699450	16.871100
3383.188000	16.408800
3382.349450	16.422000
3379.799917	16.582400
3385.959250	16.203600
3380.813900	16.511100
3377.830050	16.672800
3370.991750	17.091600
3379.566650	16.583700
3371.278317	16.754000
3368.551300	16.880700
3365.838100	17.028600
3372.595300	16.643100
3368.744767	16.880900
3369.749467	16.812500
3371.448417	16.706300
3363.905650	17.160600
3356.773367	17.297000
3363.012417	16.900100
3354.039033	17.440600
3355.373967	17.371100
3352.715383	17.425900
3355.094417	17.253800
3367.953883	16.468300
3358.388033	17.048500
3362.260167	16.829000
3363.845067	16.727600
3365.034400	16.606800
3359.490133	16.763200
3361.600433	16.620400
3361.721867	16.619600
3362.737567	16.547000
3379.818183	15.511300
3367.018133	16.276000
3363.098700	16.500900
3365.000167	16.350500
3358.696133	16.616500
3353.766350	16.875900
3362.856833	16.316500
3361.097333	16.405300
3360.491433	16.438600
3363.729633	16.217800
3365.708067	16.048700
3356.745233	16.565800
3350.914367	16.646600
3355.597300	16.323900
3347.242117	16.807700
3354.620100	16.338900
3349.569950	16.545900
3346.866217	16.615700
3357.036367	15.985700
3350.916083	16.347700
3358.225850	15.912300
3339.953017	17.009000
3340.837183	16.931800
3333.721417	17.195600
3345.144583	16.486300
3348.247717	16.285400
3341.061283	16.699900
3345.371267	16.406300
3346.567450	16.341000
3342.666083	16.570900
3348.649367	16.176800
3346.716333	15.991000
3338.500767	16.481600
3341.507183	16.297000
3345.999517	16.031000
3335.842650	16.595700
3335.358150	16.615800
3334.724667	16.655600
3339.659717	16.345700
3338.594600	16.396500
3333.415083	16.708300
3336.582383	16.337500
