#Y dist(nm)	Y force(pN)
3450.349867	20.080300
3462.728267	19.353700
3458.332250	19.692500
3470.743617	19.085800
3468.827033	19.215900
3470.162450	19.191800
3470.545767	19.184500
3463.112400	19.647500
3466.919300	19.451900
3472.280200	19.269800
3475.670017	19.097500
3467.413500	19.672100
3475.988517	19.188400
3477.586067	19.107400
3477.982833	19.098300
3473.116250	19.545800
3473.613233	19.524000
3468.809000	19.829000
3474.954650	19.497800
3480.910467	19.200100
3480.138050	19.277900
3481.067617	19.279600
3482.539300	19.192400
3478.248850	19.503200
3481.718350	19.322300
3486.634983	19.221900
3482.208717	19.492900
3490.022883	19.038300
3487.535717	19.210300
3479.182367	19.815400
3481.103783	19.811100
3483.785033	19.678200
3485.683500	19.631000
3490.755567	19.349500
3489.826217	19.406200
3496.626833	19.080300
3494.955567	19.246000
3493.054450	19.388900
3502.453600	18.963200
3496.952083	19.299900
3496.975100	19.313000
3496.685133	19.384500
3489.080700	19.858400
3495.786617	19.488700
3502.316133	19.084500
3500.499883	19.193100
3497.223117	19.491700
3497.084450	19.538000
3499.832133	19.419000
3489.319233	20.073600
3492.771000	19.867100
3493.496150	19.855100
3496.377217	19.860100
3500.361900	19.653800
3497.949317	19.807600
3508.884133	19.166100
3502.769000	19.704500
3501.977117	19.763800
3506.142750	19.574300
3501.472200	19.904300
3505.238183	19.751700
3509.319583	19.539900
3504.898483	19.812000
3506.439367	19.746400
3506.188767	19.802200
3506.750617	19.927600
3508.097667	19.855900
3504.849950	20.084900
3507.171667	19.971100
3511.886900	19.826300
3513.830233	19.732200
3513.050483	19.863600
3521.060867	19.422400
3517.717733	19.614000
3518.650617	19.556800
3517.395167	19.767400
3523.941550	19.403900
3513.782300	20.067500
3520.831767	19.661800
3509.950417	20.357500
3521.288767	19.691200
3513.294767	20.174800
3519.236567	19.848700
3524.048067	19.788400
3519.750367	20.071300
3524.634500	19.809800
3521.379933	20.073900
3524.472117	19.925500
3524.170617	19.964500
3526.705100	19.818800
3528.351300	19.754300
3529.518133	19.743600
3528.778767	19.904500
3525.982200	20.106800
3521.736000	20.382500
3529.864483	19.953600
3529.923783	20.067600
3533.104033	19.893300
3531.360750	20.093600
3533.743683	19.954200
3525.561917	20.440900
3530.246733	20.166000
3530.588033	20.274900
3531.827250	20.261600
3538.474333	19.830000
3531.538867	20.238400
3537.967217	19.880500
3537.304000	19.926500
3528.345850	20.465000
3539.930950	19.796900
3539.684217	19.573300
3531.950900	20.084300
3529.563417	20.220400
3535.122567	19.905700
3530.421200	20.150300
3532.210383	19.929300
3527.364117	20.211100
3529.901367	20.080900
3527.579267	20.216200
3521.697067	20.456200
3527.873917	20.085100
3523.129850	20.313500
3527.558167	20.070400
3522.695900	20.397500
3525.062000	20.263400
3528.643033	19.913100
3521.283350	20.321600
3520.962900	20.311100
3518.262950	20.468900
3525.927917	20.061100
3530.701917	19.744900
3530.654767	19.716400
3517.421267	20.497600
3532.164833	19.593300
3527.123500	19.890800
3533.132700	19.531400
3531.710217	19.615300
3528.388967	19.770400
3530.893100	19.499900
3530.153917	19.552300
3528.969200	19.614500
3530.171900	19.469900
3521.216933	19.893900
3520.864733	19.902600
3518.641333	20.002500
3516.643517	20.124700
3527.935333	19.455300
3526.813033	19.495500
3516.754933	20.006400
3521.539317	19.697200
3516.041683	19.994700
3519.148717	19.801000
3516.735200	19.967300
3522.644750	19.617500
3522.909383	19.445400
3518.628367	19.693000
3519.895917	19.617400
3514.227567	19.951000
3508.528200	20.201000
3513.938033	19.842600
3515.678833	19.667700
3519.302250	19.450100
3520.357967	19.403200
3521.108117	19.360300
3508.445450	20.022800
3512.957367	19.662100
3513.164567	19.643800
3516.207400	19.442600
3509.671650	19.766600
3509.978800	19.659200
3504.261967	19.997800
3508.351983	19.725000
3517.513067	19.172500
3517.015417	19.188100
3511.897983	19.487700
3511.583183	19.395000
3507.853117	19.573300
3509.812533	19.411500
3508.032400	19.506200
3507.404517	19.555000
3513.779467	19.178200
3502.301367	19.753900
3506.388233	19.473300
3493.971650	20.160800
3511.031067	19.161400
3504.331917	19.569400
3505.980283	19.459200
3507.801783	19.221900
3508.083950	19.143800
3501.542500	19.549100
3499.754033	19.678200
3506.424167	19.252000
3496.415350	19.694000
3496.000917	19.745800
3495.398433	19.813200
3499.300017	19.565500
3503.938183	19.215900
3498.333183	19.525200
3493.762600	19.760300
3499.730967	19.381000
3499.680633	19.363500
3489.019617	19.987300
3495.710267	19.583200
3500.941167	19.251400
3496.802033	19.305300
3492.455833	19.563600
3499.434850	19.137200
3491.095867	19.651300
3498.943883	19.077000
3497.111883	19.163400
3500.280350	18.912500
3488.366833	19.628700
3501.270200	18.841700
3491.634733	19.419300
3486.510783	19.618500
3489.556067	19.368400
3484.578917	19.583800
3482.599717	19.714300
3483.604983	19.681200
3486.239717	19.562200
3487.981417	19.402000
3488.788517	19.261000
3484.001817	19.542700
3485.574633	19.433700
3481.400217	19.666300
3476.199100	19.987700
3480.268283	19.751700
3479.613183	19.667700
3482.282267	19.484200
3485.063933	19.304700
3492.966483	18.822900
3485.220933	19.092900
3485.586167	19.058200
3475.314867	19.646800
3478.947733	19.437000
3475.132350	19.520900
3476.366800	19.404800
3471.589633	19.674300
3471.785683	19.648200
3467.586500	19.896200
3476.340517	19.356700
3475.559917	19.395700
3470.961000	19.686800
3474.340000	19.427300
3471.832417	19.454200
3478.458483	19.042800
3475.966683	19.201800
3477.960700	19.073000
3475.143500	19.085900
3471.669883	19.266900
3470.353583	19.284900
3469.987067	19.311100
3472.661100	19.174700
3473.426800	19.130300
3464.700150	19.531400
3470.113433	19.192500
3469.038367	19.187500
3459.923783	19.741200
3463.905633	19.540500
3459.478617	19.822600
3467.617333	19.190400
3464.901650	19.352000
3466.315217	19.237600
3472.137033	18.924300
3470.227167	18.960700
3473.388983	18.661800
3466.243517	19.056700
3469.284933	18.832200
3471.125300	18.722300
3459.759200	19.415300
3466.244983	19.018200
3470.220500	18.707600
3467.533033	18.825000
3461.839817	19.127500
3463.479067	19.039000
3460.649550	19.188500
3457.911717	19.339900
3457.337400	19.207100
3459.583700	19.081700
3460.476017	19.004800
3461.010583	18.940200
3463.361550	18.664400
3454.593150	19.152500
3451.697667	19.288000
3457.112083	18.945900
3463.566467	18.558700
3464.483950	18.509300
3452.805083	19.122300
3449.151633	19.344900
3457.104600	18.862100
3453.534800	19.083800
3452.097283	19.122300
3447.714150	19.358900
3453.796317	18.985900
3447.665583	19.354200
3445.210350	19.478900
3452.843283	19.023300
3451.717700	18.977600
3451.675417	18.877300
3451.137767	18.850300
3452.080650	18.741800
3448.200267	18.964900
3444.092933	19.213200
3447.518883	18.965700
3447.705267	18.827200
3451.847300	18.553700
3449.390783	18.700800
3448.799250	18.727400
3447.901150	18.673700
3442.886600	18.938300
3434.923867	19.330900
3433.893533	19.377300
3442.930117	18.834100
3437.432617	19.162300
3445.005700	18.643700
3439.056500	18.988700
3442.582783	18.765600
3439.622167	18.957400
3434.418200	19.185200
3434.270783	19.182300
3434.513817	19.140100
3431.858983	19.262700
3440.767750	18.719300
3440.561567	18.710800
3437.211533	18.906900
3444.153050	18.468800
3432.707933	19.038300
3437.002883	18.769800
3438.536867	18.645400
3437.903367	18.672700
3433.813167	18.854800
3432.826883	18.797100
3429.806117	18.946300
3420.726300	19.421600
3433.646650	18.635300
3425.555583	19.109700
3429.584950	18.824000
3426.826767	18.868000
3425.678967	18.939100
3424.900867	18.957700
3418.861350	19.294400
3429.203467	18.681700
3424.143667	18.994300
3426.853667	18.883600
3427.244500	18.835700
3432.778233	18.309300
3429.094233	18.539400
3430.045650	18.442400
3422.619833	18.862500
3417.153133	19.118100
3420.657300	18.908300
3428.743417	18.405400
3428.192317	18.426100
3427.028950	18.441500
3424.493733	18.464700
3419.394933	18.744600
3412.900267	19.070500
3418.580333	18.726600
3424.644000	18.364100
3419.439767	18.653200
3416.327817	18.772300
3417.350067	18.704800
3417.728917	18.690100
3422.106850	18.416600
3420.924067	18.411700
3416.373300	18.674900
3430.660900	17.774300
3427.496333	17.973600
3416.647000	18.566300
3426.273083	17.970600
3415.161550	18.528500
3410.212217	18.781900
3412.753633	18.571500
3407.124867	18.915100
3411.975367	18.635200
3411.743517	18.639100
3406.248283	18.836700
3408.052333	18.723600
3412.449217	18.485200
3412.565000	18.481700
3407.335900	18.731900
3404.191583	18.860700
3405.428967	18.793300
3405.717767	18.730900
3412.875500	18.287600
3401.280717	18.985900
3406.042900	18.705500
3410.338483	18.310800
3407.565117	18.438700
3404.001783	18.593100
3401.555267	18.739000
3399.369567	18.873400
3392.193550	19.292300
3396.076917	18.893200
3397.839250	18.810200
3403.361900	18.503300
3406.445300	18.285500
3402.052533	18.416400
3406.061167	18.116500
3396.022700	18.680600
3398.849933	18.478200
3405.713217	18.073300
3397.144500	18.601700
3399.035700	18.422600
3400.001950	18.250400
3401.544900	18.140600
3405.779367	17.822200
3404.578817	17.893600
3401.182083	18.066300
3397.507650	18.250100
3395.176900	18.272000
3390.121433	18.542700
3386.648733	18.715800
3387.183417	18.689200
3390.014117	18.537700
3388.469450	18.607400
3393.065800	18.182900
3390.465667	18.325900
3389.890100	18.386900
3396.751467	17.978800
3387.447633	18.401100
3382.253517	18.671200
3386.127017	18.407200
3381.992533	18.666600
3384.417583	18.507900
3384.972333	18.484500
3392.292700	17.942600
3386.222867	18.237400
3384.546267	18.325000
3384.797550	18.274400
3390.072883	17.942100
3386.028717	18.120100
3378.567650	18.519800
3380.431050	18.378200
3381.441533	18.310500
3385.228000	18.078500
3375.557767	18.659800
3379.455117	18.286300
3373.629050	18.566300
3372.009250	18.652100
3378.372783	18.258000
3364.406000	19.103600
3364.079500	19.157000
3372.487350	18.563000
3372.655600	18.534800
3371.690550	18.543200
3376.426733	18.259500
3372.732050	18.479300
3373.733033	18.401700
3367.373000	18.617000
3366.947133	18.652800
3365.799683	18.713100
3366.608367	18.661300
3356.575217	19.127500
3362.992567	18.707200
3375.525450	17.947400
3380.127733	17.651700
3372.705367	17.998300
3362.606400	18.530900
3365.785833	18.325800
3359.457300	18.678200
3358.399733	18.726600
3356.535850	18.816500
3354.923250	18.909500
3359.158333	18.666300
3354.029800	18.968900
3364.666283	18.158100
3363.415550	18.237800
3355.638883	18.717000
3350.740900	18.992600
3359.921900	18.332900
3357.440067	18.424000
3352.469417	18.641500
3351.935967	18.664600
3347.120267	18.990400
3354.889550	18.522200
3349.291467	18.763000
3352.431450	18.509600
3351.955400	18.539000
3345.161917	18.943900
3354.535300	18.397100
3350.690417	18.635800
3353.962567	18.409900
3345.160167	18.810400
3356.166017	18.133600
3353.933917	18.244600
3357.009817	18.063700
3356.023550	18.054200
3356.127033	18.023100
3355.851500	17.941100
3354.987583	17.999100
3352.276700	18.139100
3356.160633	17.886900
3352.744067	17.988700
3353.560950	17.907800
3345.970800	18.308000
3346.999800	18.212900
3355.080367	17.727700
3351.305600	17.948600
3352.157767	17.735500
3352.149417	17.710000
3346.407967	18.037600
3340.488417	18.366400
3342.662900	18.114200
3340.641083	18.146100
3339.319683	18.208800
3346.633333	17.751900
3329.817583	18.786600
3341.541567	18.052900
3335.891200	18.351200
3341.142700	17.951300
3338.301483	18.098700
3331.909550	18.429200
3337.004733	18.127200
3330.943067	18.506800
3342.963950	17.775800
3338.142817	17.896900
3340.682233	17.729700
3337.916900	17.834600
3330.109167	18.288700
3324.201517	18.641500
3335.326950	17.986700
3333.576483	17.913300
3333.410250	17.932400
3331.901533	17.998500
3331.995517	17.997400
3331.826033	17.876700
3327.365483	18.111900
3333.269567	17.737600
3332.707583	17.742000
3327.987667	18.046600
3327.533783	18.072600
3321.111050	18.283100
3320.210400	18.303500
3330.773383	17.669400
3329.833983	17.711400
3325.808933	17.853000
3327.141683	17.669400
3322.036933	17.933100
3321.330250	17.936900
3324.857483	17.703900
3319.553017	18.043300
3324.011200	17.774600
3312.112567	18.431200
3316.874567	18.130600
3323.389733	17.714700
3319.039083	17.993100
3322.385300	17.792900
3321.143967	17.871100
3323.674450	17.645300
3322.036933	17.728500
3318.105917	17.904100
3319.070733	17.842500
3321.343350	17.708600
3322.474917	17.617300
3306.971833	18.348600
3316.003567	17.803600
3321.204583	17.487300
3313.521500	17.949500
3317.704817	17.492800
3313.970550	17.721200
3312.691433	17.779500
3317.799033	17.475300
3311.492533	17.766600
3314.749117	17.466100
3305.081917	18.028900
3304.041300	18.086000
3307.124317	17.894200
3306.373983	17.930100
3302.637667	18.142900
3305.812967	17.807500
3308.193583	17.628900
3310.210267	17.465800
3301.688967	17.994100
3308.970167	17.543500
3302.065283	17.949300
3302.021067	17.809600
3295.449333	18.174000
3297.750883	18.003900
3296.940500	18.058400
3303.791233	17.658900
3299.461067	17.909500
3294.920917	18.192100
3300.346767	17.856100
3300.765167	17.654500
3299.146283	17.692500
3289.825733	18.227100
3301.182667	17.555800
3297.520167	17.758600
3297.396917	17.755600
3293.896767	17.900200
3299.851950	17.480600
3297.550850	17.593100
3293.519367	17.784100
3294.823367	17.673100
3292.165017	17.771500
3287.091617	18.059800
3296.118583	17.523300
3298.073767	17.370400
3291.354433	17.627400
3290.598433	17.658900
3282.808667	18.072100
3289.584900	17.664800
3292.658217	17.487700
3290.742117	17.572000
3288.460417	17.555800
3290.331967	17.430700
3292.294500	17.303000
3289.081650	17.494700
3287.286950	17.469500
3283.838567	17.628100
3285.765167	17.471500
3284.218117	17.533300
3286.163400	17.409800
3279.129233	17.832600
3279.803350	17.788100
3282.263617	17.626900
3282.391333	17.512800
3279.572467	17.583100
3278.873117	17.642200
3280.487850	17.518400
3278.497167	17.594800
3280.049400	17.408600
3277.438167	17.578000
3281.129267	17.342200
3277.411483	17.567100
3277.297100	17.437100
3281.971917	17.127700
3279.384433	17.234100
3274.365567	17.515000
3269.220017	17.847700
3272.431867	17.657200
3273.245867	17.437900
3274.607417	17.335300
3269.925383	17.623500
3283.904567	16.787200
3272.386750	17.336300
3280.230750	16.829000
3272.275200	17.309600
3274.957567	17.131000
3266.477650	17.632700
3272.434417	17.292100
3268.972250	17.457500
3272.386967	17.187100
3273.159600	17.123000
3271.787117	17.181100
3271.206267	17.214400
3266.417217	17.488300
3268.522317	17.355100
3271.065117	17.214100
3267.279133	17.347500
3264.230467	17.370400
3259.173233	17.664900
3260.843350	17.568500
3268.837083	17.079900
3266.630667	17.050000
3260.113250	17.408600
3251.243500	17.978000
3258.418833	17.527800
3267.247583	16.866900
3261.473617	17.159800
3258.328583	17.302200
3257.102183	17.387700
3262.859467	17.043700
3261.304333	17.150100
3260.345167	17.087200
3255.429450	17.308700
3252.225367	17.427100
3254.609750	17.282600
3255.820600	17.220800
3252.483600	17.418200
3250.783017	17.433400
3243.738350	17.787800
3249.394950	17.491100
3253.157883	17.217000
3252.619017	17.198200
3244.735633	17.577600
3251.614050	17.132900
3248.088583	17.301900
3248.241300	17.292500
3249.676417	17.212300
3252.449650	17.045900
3251.598800	17.003300
3251.606783	16.999800
3254.716117	16.766200
3248.157050	17.148500
3246.879567	17.240500
3240.123267	17.665600
3249.713117	17.085100
3250.719783	16.989900
3244.510433	17.333700
3244.516367	17.324800
3244.184867	17.210800
3234.643567	17.720500
3238.824917	17.370400
3232.889050	17.703800
3234.286767	17.623900
3228.376450	17.972300
3231.916367	17.674600
3233.787000	17.452400
3237.934583	17.162100
3226.858300	17.771300
3229.882983	17.577600
3239.497883	16.997700
3239.262350	17.002400
3242.315767	16.756300
3234.532633	17.234100
3228.445900	17.571800
3234.800633	17.215500
3238.046183	16.921200
3237.755017	16.900600
3228.424567	17.423500
3227.273050	17.474600
3232.848650	17.135000
3235.202183	16.983000
3227.449150	17.318000
3236.042483	16.802400
3231.124550	17.054000
3230.536183	17.080200
3229.827417	16.999300
3218.346983	17.646900
3216.977917	17.674600
3221.927817	17.373100
3224.549533	17.192100
3232.522983	16.724700
3226.922233	16.951800
3230.570467	16.655500
3232.156650	16.519700
3225.063950	16.883600
3219.262117	17.218300
3221.016733	17.107500
3222.610467	16.957300
3220.414033	16.965000
3221.347667	16.879600
3214.741633	17.235600
3216.975717	17.086300
3220.071533	16.877400
3218.839117	16.925500
3220.844000	16.661900
3219.982500	16.706900
3222.408200	16.560800
3214.981017	17.007100
3214.876417	16.894900
3208.283267	17.288500
3209.764033	17.141400
3209.668317	17.176900
3211.840167	17.058700
3215.845983	16.797000
3211.251067	16.942600
3211.222100	16.895900
3214.705833	16.615200
3211.492567	16.817200
3210.559150	16.878800
3210.803267	16.860400
3210.418783	16.824900
3210.106717	16.825600
3208.448000	16.950800
3211.719633	16.714800
3206.847400	16.967300
3204.128800	17.085200
3203.656983	17.083500
3204.170933	16.995000
3200.347083	17.214600
3192.714067	17.656900
3201.194133	17.142300
3196.858017	17.249500
3201.028900	16.986500
3201.253267	16.934500
3205.079867	16.666900
3195.603450	17.220800
3196.349950	17.174900
3196.500750	16.965800
3195.329317	17.017300
3199.047050	16.760300
3187.940450	17.422100
3207.696633	16.087200
3198.822433	16.587900
3192.919417	16.884400
3189.942617	17.051500
3199.614433	16.449900
3195.990267	16.684300
3197.151917	16.508500
3193.212483	16.683300
3194.651817	16.499800
3195.219050	16.490600
3192.734417	16.630900
3188.702350	16.876700
3186.510983	16.964100
3184.494800	16.964300
3190.554400	16.616600
3187.727117	16.783000
3186.392350	16.861700
3182.760650	16.941500
3187.322500	16.636100
3183.361100	16.844900
3180.327633	17.013000
3184.367183	16.757100
3181.862467	16.929100
3182.587650	16.711700
3181.280850	16.777700
3181.125783	16.795200
3176.835517	17.058400
3179.123150	16.818500
3177.349550	16.879100
3173.622867	17.034700
3179.972150	16.691300
3173.437667	17.049400
3175.155283	16.957800
3177.138633	16.739400
3179.179617	16.561000
3169.917233	17.100300
3180.574900	16.434500
3181.656483	16.352100
3170.144233	17.040300
3173.738917	16.784500
3171.172250	16.826300
3177.563067	16.429600
3167.662367	16.998400
3177.564633	16.423500
3168.378883	16.962000
3170.574733	16.812000
3167.993917	16.852600
3168.072900	16.846700
3170.220183	16.712700
3166.446567	16.929100
3167.142733	16.739100
3165.075317	16.834000
3169.606867	16.472800
3172.043350	16.330100
3153.150333	17.464800
3161.879583	16.944300
3164.625300	16.676300
3166.359067	16.488700
3161.292650	16.779500
3167.992333	16.397100
3165.300517	16.534900
3160.373183	16.845300
3160.308233	16.723500
3155.421833	16.979700
3161.609483	16.573200
3158.991317	16.768600
3156.830017	16.827400
3155.507350	16.823600
3154.594150	16.849400
3159.677367	16.517200
3163.027467	16.305700
3150.553400	17.063600
3156.831317	16.666900
3163.752017	16.120900
3159.430100	16.358900
3158.833967	16.393600
3157.686300	16.441700
3159.877267	16.295200
3159.478000	16.306400
3159.475833	16.320300
3159.793067	16.274200
3153.210167	16.680700
3155.833000	16.519100
3158.282250	16.144400
3157.869567	16.093600
3149.951517	16.498000
3145.709500	16.738400
3154.506650	16.179800
3154.565150	16.162100
3141.078633	16.882200
3143.361783	16.703400
3142.659500	16.709600
3143.916150	16.613900
