#Y dist(nm)	Y force(pN)
0.000000	0.748700
-5.377617	0.983100
-3.975017	0.838800
-2.115333	0.711400
-6.224417	0.913200
-3.108633	0.743800
-9.737683	1.132600
-3.394567	0.750300
-8.266933	0.993100
-15.016133	1.340800
-15.927950	1.289300
-12.020200	1.021400
-13.908433	1.101100
-10.973867	0.917700
-15.640300	1.172300
-16.131917	1.181700
-20.006550	1.410800
-6.803567	0.627600
-16.912150	1.187600
-14.780817	1.026300
-22.361783	1.410400
-16.959217	1.098000
-21.434883	1.345600
-13.488633	0.853900
-16.247367	0.897900
-19.155450	1.038200
-22.628567	1.152900
-16.095350	0.762500
-17.333133	0.792700
-20.721833	0.988000
-17.557517	0.720900
-17.559917	0.635400
-20.444917	0.800700
-13.664633	0.379000
-18.292967	0.668100
-22.639000	0.923900
-29.251250	1.293500
-19.187750	0.611600
-20.730650	0.675200
-31.613333	1.302700
-24.006517	0.838200
-29.720583	1.134400
-24.929317	0.818700
-22.031183	0.536800
-20.785033	0.457300
-20.740733	0.450700
-34.640950	1.266500
-34.774217	1.130700
-26.220617	0.564600
-36.286317	1.118400
-32.298850	0.886700
-31.444117	0.735900
-34.472750	0.839300
-38.523433	0.998200
-40.756633	1.128400
-39.406300	1.065500
-40.629117	1.152900
-44.225650	1.289300
-44.293650	1.208000
-42.380533	1.076500
-42.378283	1.019800
-42.230100	1.002800
-44.523083	1.146700
-42.222233	1.016500
-43.875267	1.049700
-42.322483	0.954400
-46.760567	1.191000
-36.362183	0.546100
-42.800050	0.778700
-46.805700	0.979400
-51.478817	1.206600
-51.691983	1.207600
-47.033500	0.932000
-41.449183	0.579400
-47.998067	0.787200
-39.321400	0.281600
-60.912617	1.548000
-54.202683	1.166200
-52.234867	1.008300
-44.092283	0.500800
-53.747317	1.020000
-54.110467	1.021800
-52.534217	0.838200
-50.246017	0.740700
-53.504133	0.877900
-50.125083	0.549100
-59.786733	1.085500
-57.338217	0.906000
-64.472683	1.338700
-52.508633	0.596200
-60.301433	1.046200
-59.909167	0.895200
-61.087950	0.961100
-65.945717	1.169100
-56.989933	0.662500
-62.276150	0.954200
-62.437817	0.944700
-68.379783	1.250800
-62.510850	0.890600
-66.235350	1.107800
-64.863417	0.990600
-68.694467	1.083000
-63.797450	0.787700
-62.676833	0.713800
-69.124650	1.082300
-69.248717	0.937800
-66.873767	0.783300
-66.256883	0.723700
-64.667017	0.617400
-58.282683	0.167800
-57.395967	0.071400
-76.821250	1.197500
-65.528983	0.530500
-76.318167	1.048800
-73.874133	0.883900
-72.352683	0.764800
-74.124533	0.830800
-73.834883	0.807400
-65.792317	0.310200
-70.670833	0.574000
-76.925783	0.801100
-74.506750	0.657200
-73.549583	0.584800
-77.294133	0.781900
-74.548817	0.552000
-75.736333	0.591700
-82.800017	0.948300
-79.513483	0.746800
-78.238050	0.656900
-80.731733	0.786400
-81.603283	0.726100
-83.569867	0.806700
-87.661383	0.965800
-84.138883	0.767800
-81.349533	0.598300
-81.889383	0.602200
-83.153567	0.542400
-86.492800	0.731900
-80.701200	0.334700
-87.541433	0.760600
-86.489333	0.640600
-90.439950	0.776900
-91.280433	0.816400
-87.690800	0.584000
-99.706483	1.284400
-93.394150	0.907100
-92.057133	0.830800
-87.910950	0.466700
-86.590617	0.328200
-98.587700	0.983000
-92.901267	0.624000
-93.484017	0.655800
-92.513533	0.577600
-96.067250	0.635900
-98.385333	0.761500
-94.144817	0.523500
-100.775950	0.900500
-91.332200	0.182600
-100.018717	0.644400
-97.718600	0.455300
-98.574867	0.501900
-100.593933	0.602200
-99.250133	0.531400
-101.827850	0.615500
-101.595167	0.509700
-111.273200	1.052600
-108.226900	0.856100
-106.548050	0.759500
-108.742067	0.885000
-104.625167	0.635400
-108.775583	0.782200
-107.821450	0.700100
-109.798933	0.758500
-108.037933	0.648100
-107.303050	0.608000
-113.013667	0.941700
-99.311667	-0.006300
-108.647350	0.508400
-108.873217	0.502500
-115.082017	0.888900
-112.402633	0.612700
-111.216383	0.505300
-110.093817	0.381900
-115.128967	0.682500
-120.795567	1.019100
-110.234367	0.392400
-117.786100	0.801500
-110.781733	0.369400
-123.355083	1.079500
-114.567550	0.540500
-119.743850	0.801500
-110.585250	0.197000
-116.630583	0.525100
-115.826983	0.390100
-116.524500	0.434300
-122.073483	0.728800
-123.216100	0.752000
-121.658817	0.572700
-122.941183	0.621100
-119.354167	0.373500
-125.735033	0.722800
-122.179917	0.513000
-127.409117	0.830100
-139.189133	1.389700
-128.812817	0.762900
-134.170133	1.058500
-120.388900	0.260000
-128.072150	0.587300
-124.393750	0.302600
-138.253183	1.079500
-129.371983	0.516100
-122.698417	0.126600
-129.219817	0.500700
-130.651217	0.534000
-132.441733	0.615100
-129.462767	0.421800
-130.400683	0.473800
-138.890817	0.970500
-137.807917	0.836700
-132.982867	0.537900
-135.097883	0.599500
-128.161450	0.158000
-135.397317	0.528300
-129.559450	0.179300
-132.156650	0.302000
-141.388883	0.835000
-141.233117	0.665100
-137.964117	0.481500
-140.499383	0.591700
-137.462950	0.406100
-141.551950	0.592700
-141.904083	0.611200
-143.691783	0.680800
-140.664867	0.492000
-150.430733	1.016500
-148.582283	0.938800
-146.653400	0.697400
-148.997400	0.794900
-141.653567	0.308400
-141.221550	0.281600
-149.847983	0.774400
-152.837583	0.924700
-151.482850	0.789200
-151.077533	0.673600
-152.430467	0.739800
-150.895250	0.641000
-144.583500	0.227300
-150.277100	0.455000
-150.534333	0.433300
-154.988050	0.633200
-157.745650	0.787400
-151.652183	0.451300
-149.610617	0.315900
-155.266800	0.494600
-153.930967	0.417900
-160.421733	0.803200
-147.924483	0.028600
-153.939283	0.235000
-156.162583	0.367900
-151.668867	0.044700
-158.334533	0.414700
-156.321467	0.208800
-162.141700	0.536900
-168.076833	0.893800
-159.704167	0.394500
-162.540200	0.526100
-168.505117	0.783600
-170.339083	0.907600
-170.634650	0.904100
-164.698017	0.504000
-168.237250	0.606800
-157.772567	-0.020700
-168.605833	0.568900
-158.623933	-0.047300
-177.041167	1.019400
-178.301583	1.096600
-167.910183	0.440200
-169.338400	0.506000
-174.040500	0.734600
-174.682600	0.778700
-177.649917	0.923400
-175.248317	0.755700
-170.855850	0.349400
-172.083050	0.445700
-174.770567	0.614400
-173.157917	0.470400
-166.985350	0.006500
-169.585833	0.104500
-173.349817	0.318900
-179.322933	0.601900
-175.540733	0.355000
-181.226083	0.695500
-174.833750	0.282200
-180.861000	0.529700
-184.819583	0.764800
-185.080183	0.734200
-180.878367	0.463800
-167.829033	-0.317900
-171.653083	-0.113300
-181.005450	0.309800
-185.597200	0.564800
-187.397167	0.673800
-179.482383	0.217900
-184.194500	0.399500
-189.624200	0.692000
-188.170550	0.563900
-193.386267	0.877500
-195.724850	1.019300
-188.284950	0.586400
-189.170267	0.492000
-189.970167	0.530700
-193.912383	0.701800
-188.224733	0.397000
-194.709117	0.707100
-184.769917	0.046800
-192.155583	0.459700
-192.269150	0.456500
-195.367200	0.625400
-194.365417	0.559800
-184.483200	-0.037300
-189.622650	0.193100
-192.359150	0.339500
-188.498667	0.060000
-190.284717	0.148800
-194.626133	0.410200
-202.339567	0.829200
-194.113633	0.215800
-195.507950	0.281600
-203.752317	0.768300
-199.835950	0.505100
-193.797200	0.028400
-198.635117	0.311100
-201.181433	0.433600
-201.151433	0.387700
-200.778817	0.332400
-195.736767	-0.003600
-196.288650	0.015500
-206.563650	0.595100
-204.703600	0.464000
-197.204700	0.029000
-205.378550	0.506000
-200.141767	0.171000
-204.031133	0.410200
-204.324950	0.253400
-206.898300	0.340700
-200.600833	-0.069800
-206.157283	0.260500
-204.201583	0.133000
-205.710767	0.222300
-221.505100	1.048700
-214.829150	0.625100
-202.347017	-0.145800
-206.564267	0.071100
-203.874483	-0.124700
-209.399917	0.201600
-226.431600	1.145900
-213.454033	0.355600
-205.514267	-0.147900
-206.264083	-0.128900
-224.479933	0.850900
-210.256267	-0.024000
-205.520750	-0.378700
-215.090350	0.183500
-222.487067	0.624600
-212.673550	0.020600
-214.940133	0.084700
-213.870583	-0.072500
-215.827683	0.046600
-213.733867	-0.099900
-215.064983	-0.063200
-228.707550	0.646700
-223.047733	0.316900
-221.568933	0.188800
-229.708150	0.632300
-227.543217	0.504600
-225.248800	0.356300
-224.640533	0.199600
-225.262633	0.220000
-226.778000	0.250700
-228.815483	0.372100
-225.748083	0.155200
-230.746050	0.458900
-227.252817	0.152400
-231.442367	0.361800
-227.529150	0.090800
-225.021350	-0.112300
-228.809600	0.106400
-222.363633	-0.284900
-237.040383	0.408100
-235.832533	0.368500
-231.236467	0.046200
-234.913433	0.316300
-230.216117	0.006600
-234.773817	0.218700
-231.172383	-0.045800
-231.808283	-0.049700
-230.698867	-0.126900
-236.795417	0.211200
-241.118767	0.447600
-237.123967	0.148800
-235.476717	0.006000
-237.707300	0.069800
-239.474583	0.174700
-239.186583	0.153400
-245.419100	0.518600
-248.290350	0.547100
-240.131467	0.047700
-243.225433	0.224800
-239.307550	-0.023500
-251.758917	0.850800
-240.671600	0.172700
-246.035067	0.489900
-249.111217	0.674700
-250.480450	0.784700
-243.254033	0.383800
-242.882033	0.377500
-248.430417	0.735000
-248.944050	0.749000
-252.209000	0.963500
-250.701067	0.885000
-235.343283	-0.024800
-241.868833	0.326800
-238.958833	0.173800
-233.419267	-0.166800
-228.857050	-0.452800
-232.887800	-0.256000
-232.971617	-0.264300
-237.907717	0.076200
-248.401867	1.020900
-246.904017	0.971100
-240.755650	0.607400
-235.815483	0.327700
-237.476300	0.514400
-231.212117	0.154200
-240.452183	0.695500
-239.495117	0.662700
-236.027983	0.439000
-236.910583	0.503200
-231.834900	0.322400
-229.070133	0.199000
-228.971067	0.188400
-238.305500	0.705500
-233.753667	0.549300
-237.981350	0.829100
-232.490667	0.508500
-232.076017	0.460500
-230.374250	0.351800
-228.001167	0.229800
-225.751817	0.077700
-232.827950	0.487700
-234.703017	0.616200
-234.631617	0.616800
-229.520250	0.395900
-220.118633	0.036100
-225.578783	0.361600
-226.132050	0.395600
-220.771050	0.116000
-220.410450	0.158000
-218.087200	0.024800
-222.087050	0.228500
-223.337950	0.300200
-224.563583	0.463600
-225.001200	0.507800
-226.387683	0.570700
-225.769183	0.546400
-223.490183	0.401800
-221.768150	0.283100
-213.968950	-0.196600
-213.699483	-0.211400
-218.025867	0.237000
-221.971317	0.511800
-216.132733	0.185500
-216.798500	0.184700
-211.863433	-0.112700
-220.863750	0.403400
-211.364600	-0.161200
-213.353733	-0.089600
-219.323650	0.258800
-216.632650	0.097100
-214.788183	0.029800
-213.341533	-0.060200
-222.191950	0.480800
-217.413200	0.176000
-213.910233	0.129400
-213.412267	0.283500
-212.126783	0.199000
-217.792283	0.549100
-217.569250	0.565400
-212.906367	0.435900
-217.223100	0.682100
-219.401867	0.828300
-226.776017	1.277700
-221.656883	0.979300
-209.693800	0.263900
-212.387317	0.446100
-210.581900	0.336800
-208.554533	0.216700
-205.729417	0.038100
-207.900733	0.376600
-203.207850	0.136100
-201.343867	0.016500
-203.347083	0.139900
-203.791950	0.151400
-210.041117	0.543300
-205.135350	0.441800
-202.056600	0.271700
-195.423583	-0.114200
-208.297533	0.663100
-206.769650	0.566300
-199.670400	0.110000
-192.706217	-0.329700
-199.451833	0.050800
-196.008450	-0.086500
-196.673317	-0.020100
-207.595750	0.669500
-204.309067	0.481500
-197.357783	0.112000
-202.759650	0.515000
-201.481367	0.463500
-193.848900	-0.002800
-196.529783	0.135400
-197.137850	0.180800
-198.206633	0.269500
-191.730167	0.023100
-192.514583	0.078400
-199.052933	0.474100
-196.485550	0.320900
-194.055967	0.202800
-191.712367	0.070500
-195.313833	0.269500
-197.672783	0.415600
-200.577433	0.602500
-190.971617	0.021300
-197.501117	0.392100
-196.423833	0.327100
-195.346517	0.274500
-193.101150	0.136700
-197.486583	0.397000
-191.852817	0.074400
-193.060017	0.156300
-194.518733	0.245500
-201.766900	0.659900
-198.023150	0.441800
-200.335333	0.571600
-198.256667	0.454500
-197.933950	0.749900
-188.184417	0.558300
-187.010650	0.495500
-187.155367	0.542400
-193.259167	0.895200
-190.164733	0.709000
-187.421850	0.560600
-186.909250	0.621800
-181.169800	0.275000
-184.550183	0.463600
-177.484883	0.057100
-185.448417	0.501300
-188.690100	0.677300
-186.478967	0.544500
-189.405783	0.740800
-182.857233	0.357400
-185.507200	0.499700
-185.850033	0.526600
-183.522917	0.371400
-185.832250	0.507800
-187.010200	0.555500
-182.093250	0.284300
-187.152150	0.565400
-184.861850	0.603500
-186.051333	0.732700
-180.650217	0.464400
-175.048817	0.160200
-192.911683	1.210600
-182.623667	0.626400
-177.751717	0.370500
-174.334717	0.180600
-178.709500	0.489200
-183.403550	0.889400
-180.621283	0.758800
-181.566133	0.861100
-174.704283	0.454300
-174.670850	0.451700
-176.070733	0.558700
-179.658567	0.788100
-179.195000	0.767600
-174.149850	0.608000
-168.716800	0.313700
-171.483883	0.479200
-171.259283	0.478300
-182.340017	1.133700
-188.054633	1.480900
-176.761217	0.835800
-175.539950	0.758600
-177.081283	0.998200
-176.644033	0.976900
-166.664833	0.418600
-171.801467	0.717600
-170.832367	0.768300
-175.966633	1.140700
-170.502400	0.801500
-165.447733	0.527800
-165.595400	0.549200
-159.934400	0.233300
-166.273383	0.671200
-159.538283	0.362800
-157.987900	0.266000
-158.941017	0.310200
-163.142567	0.572400
-168.584750	0.877700
-164.433067	0.604200
-162.088183	0.482800
-160.523100	0.399200
-146.475150	-0.366100
-155.205617	0.150000
-158.356017	0.320700
-154.449967	0.083700
-155.856767	0.295200
-161.394950	0.659900
-166.554183	1.033300
-160.268717	0.636000
-157.098017	0.481500
-156.394567	0.436800
-154.477750	0.427700
-156.525533	0.606700
-153.124667	0.410700
-158.323633	0.724000
-151.879117	0.349200
-145.814467	-0.013800
-154.337383	0.503500
-152.566633	0.406000
-158.912817	0.918600
-152.681700	0.692600
-151.768517	0.663600
-153.469050	0.757400
-143.817650	0.170600
-153.295150	0.739700
-160.640350	1.198700
-154.993483	0.881200
-149.668933	0.561100
-155.113300	1.128800
-149.697150	0.806000
-148.208833	0.729400
-155.635667	1.155300
-147.743650	0.794000
-147.266000	0.791900
-151.652567	1.060200
-138.535100	0.292700
-144.389883	0.637000
-140.649717	0.396300
-137.461400	0.336800
-136.989383	0.344500
-144.999917	0.823200
-140.532450	0.575900
-147.897083	1.050100
-135.837067	0.419100
-139.796400	0.656600
-148.115467	1.165800
-137.257900	0.515900
-136.162550	0.464600
-140.861217	0.767400
-143.616150	0.981800
-138.308400	0.667100
-137.276550	0.624200
-135.115383	0.517900
-134.039200	0.566600
-130.420933	0.364600
-131.218450	0.405200
-138.596450	0.860000
-142.777067	1.121400
-138.620300	0.881300
-127.515167	0.351300
-125.383783	0.269500
-137.749250	1.002500
-134.941583	0.850600
-133.876067	0.768000
-134.336400	0.800900
-120.233783	0.120400
-129.010717	0.644100
-127.353483	0.539200
-129.409733	0.669700
-133.854050	0.938900
-134.052367	0.969900
-133.311033	0.919900
-129.307350	0.687200
-131.477100	0.921200
-125.145783	0.665500
-127.965817	0.848700
-123.358117	0.573300
-126.495767	0.749400
-119.267583	0.335500
-122.726017	0.502500
-124.034400	0.588800
-126.738583	0.769300
-129.771817	1.191000
-121.586050	0.724400
-121.586500	0.726500
-129.559950	1.217300
-128.509817	1.279500
-119.837083	0.782500
-128.015683	1.291000
-120.134633	0.841300
-119.532917	0.805500
-119.961100	0.827000
-116.725817	0.773700
-117.878450	0.856700
-118.586700	0.896600
-123.136133	1.189000
-117.507417	0.838200
-112.215050	0.531200
-114.752500	0.638900
-118.854100	0.863600
-120.135350	1.010000
-116.284783	0.846100
-121.230617	1.155900
-120.545750	1.123400
-123.968183	1.341700
-123.675850	1.336100
-123.908633	1.374100
-115.100667	0.882000
-113.579417	0.827700
-103.738200	0.485000
-107.930133	0.721900
-103.455683	0.457900
-106.491367	0.644100
-103.254200	0.586400
-109.229367	0.939900
-120.068900	1.583000
-120.402600	1.621700
-109.409117	1.093200
-111.553167	1.243800
-109.560833	1.122100
-100.839200	0.598400
-104.576217	0.825600
-95.473167	0.286800
-87.843600	-0.195100
-91.865383	0.049000
-102.246383	0.634000
-105.776433	0.872800
-95.593083	0.489400
-95.764783	0.506800
-103.512483	0.967300
-94.560783	0.441400
-90.409400	0.183800
-92.544967	0.293400
-94.797450	0.455000
-94.105133	0.441400
-95.943267	0.555000
-101.038750	0.984200
-102.077617	1.061100
-99.331917	0.915900
-96.760750	0.755000
-89.459000	0.484400
-87.287817	0.348900
-96.867617	0.930000
-86.649083	0.310900
-81.647800	0.118700
-87.636433	0.505600
-99.373950	1.216700
-94.357917	0.930900
-93.138650	0.856100
-93.857133	0.896200
-94.929500	0.953600
-88.613517	0.573600
-94.262417	0.918600
-93.762517	0.898800
-82.931783	0.530500
-85.192133	0.669700
-96.071933	1.303900
-90.956283	1.012600
-92.351833	1.159300
-86.629767	0.873900
-86.225967	0.848700
-92.493983	1.224400
-85.646450	0.862700
-85.276750	0.932600
-85.522717	0.966300
-85.626800	0.964700
-90.499100	1.236800
-91.280967	1.271400
-87.145417	1.041300
-88.199483	1.083400
-89.448283	1.159900
-88.800300	1.153400
-83.843383	0.846100
-79.049883	0.811300
-75.733417	0.686100
-78.132383	0.843400
-78.428167	0.859800
-79.598617	0.918600
-84.993700	1.215200
-88.886250	1.480700
-83.335850	1.126400
-81.490100	1.222100
-76.711417	1.000500
-74.856233	0.912700
-76.296117	1.023300
-79.367767	1.217100
-74.869767	0.916200
-74.728367	0.913500
-70.249717	0.775200
-69.019700	0.713600
-70.647817	0.797400
-80.027867	1.372200
-79.704783	1.460200
-71.355267	1.009500
-68.018367	0.785700
-76.656833	1.283500
-76.325950	1.257800
-76.394817	1.275300
-67.550117	0.891300
-66.665433	0.874900
-62.794033	0.631900
-69.803350	1.052900
-76.134583	1.414300
-66.459850	0.838700
-69.021050	0.992000
-65.755417	0.787500
-69.828883	1.016500
-62.267467	0.577500
-60.329600	0.749000
-66.269883	1.127200
-53.692017	0.378000
-61.187333	0.783100
-63.575317	0.990300
-63.934867	1.088100
-63.429733	1.069000
-63.067817	1.078800
-64.569650	1.177400
-68.156350	1.529900
-68.102633	1.518100
-60.475150	1.073000
-59.524150	1.003400
-64.844067	1.334100
-57.988367	0.924900
-56.286517	0.803400
-59.160633	0.997600
-50.830717	0.741900
-61.102033	1.381000
-56.803617	1.118100
-65.437950	1.622300
-47.395017	0.532500
-49.846633	0.691300
-54.009483	0.927100
-51.430267	0.768300
-59.164067	1.455000
-46.676117	0.724800
-44.445817	0.566100
-51.372833	0.972700
-55.334333	1.266400
-52.034483	1.172800
-53.129300	1.226300
-45.531667	0.773400
-42.926533	0.651100
-50.453367	1.098300
-47.294533	0.924700
-43.180300	0.718700
-49.053550	1.056500
-50.540267	1.173900
-43.885867	0.783300
-56.622183	1.554400
-46.003400	0.937100
-46.085300	0.942500
-49.468267	1.166700
-43.755200	1.063700
-42.972200	1.067600
-45.905767	1.238100
-46.806033	1.297000
-39.438500	0.850400
-46.601717	1.284300
-40.457100	0.929300
-37.285250	0.726500
-50.185433	1.618600
-42.962967	1.202700
-39.381733	1.010200
-40.537883	1.108300
-36.623050	0.903800
-38.051733	1.004800
-32.025267	0.656400
-32.950250	0.736400
-41.612117	1.251300
-41.922333	1.276900
-40.172383	1.199200
-40.220333	1.252000
-39.167217	1.201800
-37.016650	1.104500
-33.579883	0.919900
-28.258250	0.608000
-30.655750	0.770000
-33.765550	1.237700
-31.237450	1.096700
-30.002483	1.046800
-30.686217	1.092900
-26.490167	0.966000
-30.974050	1.271300
-36.641233	1.626400
-32.564250	1.373900
-28.613800	1.148600
-28.846133	1.158700
-18.846567	0.767400
-26.092667	1.194300
-21.765467	0.935400
-32.739150	1.595300
-26.365417	1.258800
-23.035600	1.086500
-18.639183	0.829000
-21.267450	0.989000
-26.223167	1.284900
-20.300233	0.919900
-27.091117	1.334700
-26.805533	1.334500
-26.365883	1.331200
-24.180400	1.197500
-17.582033	0.884500
-23.476217	1.443300
-25.775117	1.616100
-21.753700	1.433300
-24.253350	1.592600
-23.083983	1.543900
-13.207133	0.970000
-5.375017	0.562500
-15.382450	1.134500
-20.912167	1.469100
