#Y dist(nm)	Y force(pN)
0.000000	0.239600
5.258367	-0.090800
-6.366750	0.582200
-10.148983	0.635800
-5.124983	0.243100
-11.159767	0.575100
-10.354050	0.528200
-12.924383	0.671200
-11.096350	0.559700
-11.815250	0.586400
-9.591717	0.450600
-11.352117	0.531600
-3.503833	0.065200
-7.014683	0.134500
-7.792183	0.013900
-13.349650	0.306200
-23.266317	0.891900
-25.490533	1.026100
-15.877183	0.445600
-13.470017	0.266100
-19.695683	0.577900
-20.743783	0.616000
-17.111000	0.378500
-22.640567	0.705300
-10.550017	-0.023700
-12.370700	0.066800
-21.902067	0.613800
-17.465667	0.343500
-26.386400	0.589400
-15.200833	-0.082100
-26.057000	0.569300
-25.405617	0.493800
-27.481617	0.491400
-30.946017	0.680100
-25.642133	0.366100
-29.071067	0.527700
-25.430733	0.275800
-30.243683	0.553900
-28.849383	0.316300
-33.120567	0.526200
-28.636200	0.271700
-36.330217	0.717600
-30.907467	0.386400
-30.265833	0.310900
-36.316233	0.583300
-36.770400	0.476000
-37.347167	0.506400
-33.406867	0.244200
-34.336467	0.311100
-38.380933	0.551500
-42.239250	0.781100
-41.070350	0.692600
-41.395967	0.711600
-39.886333	0.542500
-35.778950	0.269600
-38.584883	0.404200
-45.949567	0.845700
-35.191417	0.186300
-40.474417	0.481500
-45.266217	0.746400
-46.827317	0.826500
-44.081833	0.418600
-42.906700	0.324200
-43.193317	0.304500
-40.510450	0.152300
-44.259500	0.257000
-43.983550	0.192500
-49.961633	0.549700
-50.626517	0.566100
-51.470550	0.622700
-57.913467	1.000800
-55.512800	0.767000
-49.897883	0.322300
-51.487933	0.429100
-48.899250	0.271100
-52.648550	0.456500
-58.449400	0.768800
-59.238200	0.832100
-51.009500	0.314300
-60.701967	0.856200
-53.349383	0.203200
-55.088033	0.285700
-58.475533	0.484000
-58.215317	0.462000
-55.122983	0.253600
-43.618867	-0.457800
-54.349067	0.164700
-57.524867	0.350100
-56.982033	0.091000
-55.455150	-0.043600
-57.796533	0.081100
-66.780567	0.587100
-73.723500	0.974600
-68.325717	0.671400
-60.973333	0.224500
-64.418833	0.408100
-74.409950	0.807500
-73.231300	0.704300
-63.798967	0.108300
-68.974967	0.351300
-74.196533	0.663100
-80.506083	1.040800
-73.518583	0.623500
-74.709117	0.702600
-72.143667	0.546000
-68.084933	0.309400
-69.696000	0.375800
-71.651467	0.253800
-79.055383	0.663100
-80.261517	0.706800
-69.134400	0.041900
-81.926817	0.796200
-81.978917	0.783300
-83.421583	0.860200
-75.608417	0.408900
-86.093167	0.915600
-79.114933	0.463000
-72.715583	0.092200
-78.416283	0.418600
-79.467283	0.421600
-75.876133	0.165400
-75.801833	0.146800
-81.465217	0.446400
-84.798050	0.570200
-82.401417	0.400200
-84.392850	0.515600
-89.250550	0.797600
-86.250350	0.631400
-77.401100	0.053300
-75.439217	-0.101100
-81.962917	0.272400
-84.851200	0.419300
-88.923917	0.653400
-85.562967	0.341700
-88.014450	0.302600
-90.705633	0.432100
-87.468783	0.224800
-90.098867	0.380100
-87.339533	0.195100
-94.396200	0.618800
-89.163783	0.298300
-88.864817	0.249900
-90.518333	0.231700
-86.787333	-0.033200
-95.467367	0.436500
-93.964900	0.347000
-83.861700	-0.269800
-88.382233	-0.028400
-94.389500	0.323600
-87.109633	-0.111200
-89.656933	-0.182300
-89.289617	-0.293400
-108.527850	0.822500
-102.236983	0.425800
-98.639650	0.194300
-111.849483	0.983500
-106.971800	0.578600
-101.259983	0.162700
-106.510117	0.463800
-100.655950	0.101600
-111.479600	0.659900
-105.975317	0.284700
-111.605817	0.612300
-114.361383	0.747700
-110.338433	0.486400
-112.213733	0.596200
-104.554450	0.134000
-105.367317	0.162600
-108.550850	0.302300
-109.136700	0.130100
-107.790517	0.005700
-109.439300	0.084500
-109.300933	0.075400
-111.880117	0.198300
-115.799833	0.457600
-117.909150	0.569600
-108.875217	0.021300
-114.866300	0.294800
-116.801300	0.378500
-116.537250	0.343400
-114.265500	0.174200
-110.800950	-0.046900
-111.406333	-0.034100
-114.897850	-0.040300
-117.350100	0.074900
-122.128050	0.345800
-127.173100	0.627200
-122.864333	0.295300
-122.863267	0.244800
-121.751400	0.130100
-126.719700	0.465800
-128.055300	0.547700
-118.498717	-0.065100
-127.844883	0.434800
-133.438567	0.637500
-123.637350	0.044900
-126.857883	0.213400
-135.235633	0.704800
-122.638733	-0.060800
-130.536250	0.381500
-136.992533	0.670300
-132.075433	0.376600
-130.162567	0.260100
-129.491983	0.187000
-132.859450	0.225800
-129.018183	-0.025100
-126.392300	-0.207700
-133.564267	0.202500
-126.901917	-0.225300
-123.764617	-0.414000
-119.767450	-0.712600
-125.119667	-0.378000
-133.219900	0.094100
-137.232167	0.329100
-127.754150	-0.520300
-135.220783	-0.122300
-140.810250	0.243800
-137.282617	0.003600
-137.571633	0.070000
-141.207033	0.347800
-138.612417	0.229800
-135.398817	0.035100
-134.812983	-0.005600
-138.035167	0.175200
-137.057750	0.095000
-147.800450	0.799700
-145.944383	0.711700
-144.020300	0.692900
-134.875217	0.141000
-140.029133	0.468100
-142.451383	0.582400
-134.305600	0.227300
-128.480783	-0.123800
-128.581733	-0.134600
-140.806700	0.565400
-129.920567	-0.086400
-138.044883	0.387100
-131.329950	-0.013900
-131.301800	-0.017800
-135.519567	0.375600
-128.921800	0.071300
-129.174267	0.061200
-128.215967	0.013200
-133.677300	0.332900
-128.342467	-0.015000
-132.516717	0.237300
-135.263183	0.397600
-133.664550	0.410300
-128.856733	0.238300
-126.508300	0.097100
-128.122533	0.205300
-129.690583	0.285700
-128.071583	0.285100
-130.000267	0.415800
-136.049000	0.791900
-125.425200	0.140600
-127.956017	0.263700
-130.587950	0.408800
-124.402483	0.181000
-117.877133	-0.189200
-121.934933	0.071200
-123.417033	0.164200
-125.500717	0.291000
-121.396850	0.044000
-123.975283	0.178000
-120.082750	-0.068800
-122.311033	0.150400
-116.946250	-0.140500
-120.263033	0.055600
-127.064883	0.454300
-123.508700	0.282200
-119.021500	0.038000
-107.146650	-0.693400
-119.880983	0.061900
-122.267467	0.197400
-121.938933	0.190600
-116.635767	-0.006900
-119.409983	0.283600
-116.193767	0.115200
-115.588250	0.098000
-117.905383	0.226300
-122.645167	0.513000
-125.543483	0.688900
-119.755267	0.327300
-113.119883	-0.066200
-115.326317	0.303900
-113.550917	0.227100
-116.047867	0.363900
-117.482000	0.432800
-112.522467	0.138900
-120.285017	0.614400
-113.433333	0.223000
-113.522617	0.205800
-110.338433	0.220900
-112.352917	0.393300
-122.386017	0.994800
-114.541683	0.517600
-124.196683	1.079500
-116.016433	0.605200
-111.068433	0.296200
-116.079850	0.608600
-109.052550	0.304400
-107.385183	0.346300
-104.763050	0.179900
-112.771117	0.673800
-112.071600	0.664400
-107.167267	0.453300
-108.342000	0.511700
-105.277567	0.320400
-98.522667	-0.067800
-113.033167	0.778500
-109.891117	0.617100
-102.744633	0.361900
-101.963200	0.303200
-111.159917	0.861300
-103.503317	0.372300
-102.053717	0.400200
-100.748067	0.357300
-102.676083	0.464500
-101.477267	0.380100
-97.789450	0.170300
-105.988883	0.641200
-114.705183	1.159900
-110.968567	0.952500
-109.043383	0.829900
-106.672167	0.699900
-98.707067	0.489600
-100.626767	0.654300
-95.065450	0.292700
-98.058850	0.486200
-101.307633	0.661300
-101.674433	0.691900
-96.139267	0.432600
-100.957650	0.801500
-100.766367	0.791700
-102.809383	0.927700
-93.455783	0.393400
-91.297233	0.247600
-100.451550	0.831200
-92.673817	0.402900
-90.098100	0.249800
-99.881650	0.834500
-98.943917	0.802500
-91.632333	0.361900
-95.975600	0.620000
-92.013433	0.361900
-95.489683	0.584800
-87.620833	0.372100
-81.387017	0.002700
-88.849033	0.428500
-89.340600	0.468200
-86.379150	0.382700
-83.171767	0.216000
-81.518333	0.091600
-81.826433	0.111100
-96.329467	0.949800
-87.642517	0.444300
-87.878100	0.558500
-86.639083	0.539500
-91.602417	0.874200
-88.177917	0.637200
-91.102200	0.824600
-86.781483	0.592300
-78.404983	0.089200
-89.351433	0.715600
-90.533033	0.822100
-84.979100	0.564800
-82.099917	0.403200
-87.271800	0.698300
-87.341050	0.710600
-87.423083	0.707500
-91.002117	0.941700
-87.949867	0.767400
-79.742600	0.276500
-87.698067	1.013400
-77.596150	0.407300
-80.536250	0.598700
-78.335567	0.461400
-80.359600	0.638300
-82.248100	0.777200
-77.285367	0.464700
-83.015233	0.835900
-79.257983	0.616000
-75.517833	0.384100
-80.204900	0.822500
-76.345267	0.643800
-73.816733	0.491200
-75.725017	0.615900
-75.558933	0.603700
-80.959800	0.947000
-72.985500	0.478700
-77.832550	0.762800
-79.711067	0.999600
-79.901650	1.151600
-70.950850	0.628400
-84.093833	1.423900
-82.377050	1.336100
-76.603133	1.036000
-74.002333	0.871300
-75.368600	0.943100
-70.118917	0.686100
-71.034083	0.951700
-68.199800	0.780500
-66.777917	0.696600
-72.617467	1.030500
-74.631800	1.155200
-65.399917	0.595500
-61.918317	0.387600
-66.797433	0.663100
-63.387917	0.522300
-59.245583	0.287800
-73.255367	1.131900
-74.872283	1.213000
-65.314100	0.629600
-65.048767	0.622800
-54.048717	0.371400
-64.016650	0.917900
-55.282933	0.418600
-63.267400	0.890000
-62.029783	0.873400
-57.751933	0.669700
-54.205350	0.430700
-55.348867	0.491400
-57.133700	0.612200
-62.922450	0.961400
-64.711217	1.074600
-55.641300	0.520700
-62.099417	0.970200
-49.687683	0.418600
-49.339117	0.371700
-53.404633	0.612700
-55.118317	0.716700
-59.711583	1.018600
-51.940300	0.533300
-55.434850	0.738500
-62.957917	1.210200
-46.640983	0.474100
-43.893867	0.324900
-48.887300	0.587900
-42.994450	0.275000
-50.923333	0.722200
-49.466900	0.624500
-44.068133	0.418600
-47.828183	0.674800
-51.515350	0.896300
-47.135217	0.622800
-51.019133	0.956800
-49.207767	0.897900
-51.293817	1.008300
-49.390500	0.908300
-49.509050	0.905600
-56.644683	1.321300
-52.249533	1.043200
-49.953683	0.919900
-49.625800	1.002500
-44.786167	0.886200
-38.302583	0.490300
-38.180483	0.493300
-42.780783	0.734200
-41.062100	0.630800
-40.125467	0.576600
-45.250067	0.856500
-41.020217	0.631200
-34.794400	0.369200
-41.514067	0.790200
-52.437283	1.432300
-40.879800	0.737300
-39.226783	0.661600
-39.615333	0.680200
-39.075383	0.733300
-41.137450	0.868400
-37.984567	0.698100
-33.960783	0.482200
-43.249400	1.070900
-38.311733	0.812800
-41.618217	1.028400
-34.038783	0.581200
-39.283683	0.887800
-34.846067	0.626700
-41.684517	1.028400
-40.157050	0.960800
-34.021500	0.735500
-35.392650	0.954800
-31.451150	0.742400
-28.965367	0.609900
-30.575433	0.707500
-33.721233	0.919900
-32.090483	0.817900
-35.390333	1.002400
-32.141267	0.857100
-22.166667	0.474300
-29.203433	0.914200
-28.053633	0.861100
-33.155433	1.169500
-21.976767	0.509100
-22.837383	0.543700
-25.890383	0.896500
-20.162733	0.569800
-28.274083	1.027600
-21.711383	0.648700
-24.695850	0.935000
-27.366133	1.122700
-15.031783	0.403900
-25.123333	1.027000
-22.753417	0.897900
-20.551250	0.771800
-26.872233	1.261000
-18.058950	0.773600
-23.711117	1.116600
-20.427350	0.917900
-19.492050	0.850400
-17.194350	0.703100
-9.562733	0.252100
-9.767683	0.243100
-19.624917	0.827700
-20.685917	0.918000
-20.321567	0.969300
-12.700900	0.588500
-20.249817	1.035600
-24.318933	1.294900
-13.940550	0.689600
-22.220350	1.184900
-16.899917	0.880800
-11.373067	0.709200
-17.751750	1.099700
-11.410867	0.747300
-17.802000	1.132700
-6.306150	0.568400
-7.842583	0.680800
-15.451217	1.164600
-10.390467	0.867000
-9.750667	0.834000
-13.010933	1.047400
-8.224300	0.781400
-10.934400	0.932600
-11.332933	1.029100
-10.816433	1.048600
-8.101600	0.911600
-9.591950	0.964100
-9.375500	0.956000
-7.458850	0.886400
-9.059733	1.027000
-10.641583	1.113700
-7.018100	0.906800
-5.221300	0.831200
-6.038467	0.926100
-2.768800	0.801800
-1.552617	0.752700
-1.944917	0.787500
-1.903733	0.786400
-1.828167	0.775200
-2.062783	0.807700
8.452250	0.320000
2.288450	0.667700
-5.402150	1.144700
-6.025883	1.179100
-7.331850	1.368800
-2.697667	1.112700
1.342300	0.953600
-3.247283	1.249900
-4.093133	1.352200
5.837433	0.741900
2.345750	0.977000
-0.737733	1.175200
1.219517	1.069000
7.035967	0.762400
6.566050	0.787400
-2.727550	1.325300
0.102700	1.186100
1.932933	1.141800
-0.921983	1.327900
1.608533	1.182300
2.369700	1.226300
0.537183	1.397400
3.845400	1.226300
11.781733	0.812700
12.533800	0.773600
6.156017	1.159300
7.502267	1.086100
14.491733	0.785700
9.873367	1.064500
13.273683	0.865800
8.521983	1.107900
7.752750	1.277600
10.719283	1.131900
6.434600	1.461800
16.213250	0.884600
7.574217	1.366900
13.371833	1.056000
23.545900	0.539600
15.708283	1.042200
20.226200	0.831200
24.603817	0.581500
12.584467	1.299700
21.925683	0.719100
21.496367	0.744700
17.511067	1.021000
13.132517	1.294900
27.509067	0.468400
20.284200	0.901100
22.425083	0.774000
16.660333	1.109400
21.359733	0.955500
21.961767	0.937000
21.092817	1.001800
22.321183	0.948300
23.392317	0.985600
20.016867	1.196500
28.217917	0.762100
22.440983	1.110900
24.541967	0.985000
23.347300	1.073900
18.893400	1.413200
16.500583	1.622700
31.405867	0.764800
24.587817	1.202200
15.793983	1.725300
25.359783	1.163400
27.855383	1.072800
35.449367	0.701800
34.848117	0.743800
29.210400	1.075100
25.183850	1.342700
32.550833	1.013400
34.813100	0.899600
40.339900	0.610400
35.215950	0.901100
39.173833	0.642900
36.590033	0.788400
38.458017	0.784300
37.750467	0.862900
35.712850	0.993200
35.855617	1.001800
41.454933	0.631500
31.678017	1.212100
22.416617	1.840000
33.693550	1.157600
41.318167	0.701800
33.145517	1.193200
36.058933	1.099500
44.185117	0.656500
28.444433	1.651200
32.387583	1.398600
38.642100	1.013000
35.595550	1.226300
35.564050	1.293800
41.420317	0.993100
46.071517	0.743800
41.883517	1.019800
35.343683	1.415100
35.859033	1.371300
46.085133	0.788700
36.552650	1.450400
41.077483	1.179900
43.520217	1.063300
39.627833	1.293600
36.011967	1.666300
46.202900	1.080200
49.245267	0.919000
50.308633	0.876900
46.500883	1.138200
46.903583	1.094400
45.041067	1.327000
47.280450	1.219100
53.479567	0.915100
48.501167	1.212700
38.920517	1.787500
49.965167	1.161400
45.473833	1.437000
45.850800	1.436600
50.751600	1.177400
50.383067	1.189000
46.616383	1.423500
45.683817	1.515700
47.607817	1.442800
56.918617	0.995500
58.646333	0.894600
56.619283	1.026300
59.090817	0.865300
55.533783	1.082700
50.666350	1.372400
54.151283	1.349100
52.010550	1.479500
54.194850	1.357400
57.046150	1.199300
62.350683	0.984300
63.731783	0.919500
63.787200	0.907100
61.160000	1.078700
55.979467	1.461700
60.852850	1.173200
56.917567	1.493800
56.456783	1.535400
52.492133	1.800600
62.777700	1.166900
61.225550	1.357400
60.434983	1.457100
61.821967	1.393300
64.941267	1.228000
63.192433	1.336500
64.873300	1.215800
67.249417	1.149400
65.449617	1.338400
66.202133	1.281000
72.875983	0.891300
60.736433	1.646700
63.072567	1.564600
68.259467	1.236100
70.937000	1.140200
70.122050	1.185200
66.466167	1.373200
59.456950	1.819400
72.753933	1.064400
70.386283	1.199700
70.134400	1.251800
68.799800	1.344200
69.481083	1.316100
68.578917	1.379500
71.687400	1.338200
67.546550	1.593500
67.297400	1.621400
79.759133	0.881400
75.811983	1.204500
73.553967	1.375000
80.012700	1.033100
71.644600	1.555400
72.624917	1.497100
67.754933	1.802100
74.282867	1.450600
75.704500	1.390700
78.553950	1.230800
73.964483	1.503000
80.541800	1.148900
76.299283	1.404600
82.942033	1.026300
83.101550	1.116200
81.167650	1.262300
78.268400	1.489400
79.833950	1.406000
81.468683	1.303800
80.231450	1.380200
78.706017	1.581700
88.492683	1.030800
81.656500	1.433000
90.967850	0.884300
88.079400	1.203200
86.844283	1.253700
97.625600	0.584900
88.048617	1.173100
91.996300	1.063700
89.410700	1.213400
84.021000	1.595600
88.138033	1.346400
93.200100	1.044500
90.194900	1.271600
90.532900	1.234400
82.548450	1.724300
82.044050	1.828400
87.867000	1.594100
88.188133	1.587900
91.524217	1.390900
91.629567	1.413400
93.034217	1.414000
93.908900	1.385300
94.746067	1.372300
100.413767	1.034500
99.113633	1.092000
92.000267	1.534000
99.172467	1.233700
100.363833	1.163400
94.166467	1.529500
98.650533	1.296300
106.562350	0.898100
102.538983	1.131900
104.134667	1.023100
99.079400	1.322300
106.561967	1.073500
100.768717	1.415800
99.584100	1.483700
98.477567	1.563700
97.629967	1.627000
102.172200	1.370600
106.556800	1.112900
99.026867	1.554100
97.413267	1.724200
100.585450	1.627400
111.601317	1.037500
105.805983	1.337100
103.472583	1.515300
105.891900	1.413200
110.354267	1.150900
113.022733	1.069800
110.946917	1.188700
109.812850	1.256900
114.164983	0.991200
109.989783	1.335300
105.399150	1.609700
105.249983	1.690500
119.628033	0.834900
113.063783	1.184400
115.158433	1.061700
112.092483	1.284300
112.878250	1.247300
108.495183	1.559400
118.556483	0.999600
107.912333	1.655700
116.042417	1.155400
122.217983	0.900000
115.324833	1.339200
113.869583	1.444500
117.886650	1.208300
118.187283	1.223100
113.807433	1.544700
125.950067	0.826900
123.981550	0.959600
116.088733	1.452300
121.533867	1.129300
111.923317	1.717900
123.510400	1.173200
130.100200	0.779000
122.235000	1.312100
124.008417	1.193200
115.111350	1.703000
114.617783	1.750800
124.489667	1.310200
128.445817	1.082500
127.035433	1.184400
128.768567	1.069600
129.165250	1.151000
128.243867	1.229800
124.907483	1.415100
125.968450	1.398800
121.913900	1.604000
132.649667	1.006000
131.287533	1.134300
126.136217	1.522000
139.812383	0.702600
131.803717	1.209100
131.448150	1.232000
126.174667	1.539100
131.352133	1.284000
126.860900	1.637900
138.419950	0.937400
135.462533	1.131900
128.168050	1.595900
132.484817	1.343500
128.630933	1.560600
137.159917	1.098700
140.056933	0.945600
140.022783	0.968700
136.064617	1.188700
146.239967	0.691300
141.672833	0.970800
134.411683	1.408800
136.047833	1.313700
141.010033	1.138200
133.133233	1.629600
135.952850	1.511600
147.447183	0.815100
142.539667	1.111600
138.738000	1.355000
142.829550	1.189100
140.825000	1.367900
147.090750	1.013300
138.839250	1.544300
141.185317	1.411900
149.132167	0.919900
136.711367	1.703200
147.852383	1.088100
145.176233	1.246500
145.341683	1.274700
139.060067	1.645000
146.660100	1.240700
142.890100	1.452200
145.826783	1.422000
146.770883	1.386900
146.007967	1.459600
147.715400	1.366400
148.802000	1.289300
147.489483	1.376700
157.385283	0.785700
147.651600	1.363700
148.895667	1.393300
149.528000	1.428500
146.036833	1.719300
147.959000	1.592300
146.472983	1.659600
143.571700	1.853300
152.455517	1.385200
156.600950	1.236800
158.043517	1.160200
161.001400	1.007900
152.897967	1.507900
150.532717	1.682200
149.964150	1.720100
154.314400	1.469300
158.905183	1.212300
159.176233	1.375500
159.427250	1.357400
157.963500	1.439600
161.914000	1.197800
153.915767	1.789300
157.134900	1.622000
164.169100	1.247300
161.319267	1.429900
163.044167	1.322800
154.137867	1.859800
158.615983	1.714500
158.649767	1.734400
161.633033	1.630200
165.305233	1.379700
163.755333	1.472100
163.890400	1.485500
154.848933	2.086500
159.693350	1.777700
163.581550	1.557500
165.116667	1.483300
164.272950	1.536200
167.026533	1.433700
162.942800	1.697600
162.251650	1.765700
165.693067	1.548700
162.513767	1.748200
153.725233	2.299500
160.392583	2.066700
161.293483	2.016300
165.382867	1.789300
166.165150	1.729100
171.819567	1.524400
175.640417	1.338700
170.984583	1.630200
176.500017	1.322500
171.014967	1.656400
173.757417	1.492600
168.211217	1.888000
171.588850	1.714400
163.478067	2.215900
174.939933	1.565700
164.214850	2.204300
169.144800	1.926800
177.166750	1.521500
176.488217	1.646500
178.025550	1.563500
175.686983	1.704900
177.605433	1.616100
176.392917	1.791400
181.902317	1.479700
179.358617	1.681300
186.302450	1.263800
187.676133	1.176300
170.369683	2.166000
169.599367	2.235100
171.115667	2.167600
