#Y dist(nm)	Y force(pN)
0.000000	0.095900
-7.470500	0.551900
-4.431583	0.342100
1.534050	-0.010300
-4.455783	0.361000
-3.119483	0.248200
-5.512400	0.375800
-1.590050	0.151700
-5.284550	0.366500
-6.700767	0.446400
-8.098733	0.542200
-7.546167	0.519000
-6.204867	0.442800
-4.562717	0.349500
-2.485467	0.204900
-1.373350	0.136400
-0.788383	0.125500
-4.889783	0.359800
-1.405583	0.139900
3.968900	-0.174400
-7.768200	0.514100
0.284317	0.082900
0.210717	0.040300
-1.481517	0.141900
-7.426983	0.487000
-10.191750	0.651500
-4.852567	0.346500
-10.443900	0.683900
-4.826067	0.325500
-15.985733	0.984400
-3.668800	0.262700
-4.418217	0.347400
-11.439383	0.762100
-12.265783	0.799900
-8.807217	0.582900
-1.601667	0.148500
3.357117	-0.139100
-3.634083	0.276700
-6.090067	0.407400
-3.705733	0.266800
-4.279583	0.312700
-3.543367	0.278400
-7.423483	0.496900
-13.511033	0.858100
-7.339167	0.502500
-11.575317	0.784200
-2.494617	0.228900
-9.746200	0.651500
-6.413233	0.465400
-0.531017	0.117000
-3.717583	0.318100
-0.536933	0.094600
-2.732983	0.220600
-2.036333	0.206500
4.063783	-0.150900
-5.070017	0.372000
-5.300700	0.391400
-1.145983	0.160300
6.889817	-0.332900
-8.185433	0.570700
-0.856000	0.115100
-9.074517	0.583800
-3.535867	0.257400
-2.324417	0.170100
-7.545533	0.489100
3.408750	0.024200
0.390383	0.198300
8.216967	-0.280400
3.990200	-0.011500
2.455883	0.134700
-6.623250	0.692000
1.340717	0.241000
7.741600	-0.142600
-0.240667	0.320100
0.995050	0.253700
-0.781233	0.382300
1.907367	0.196000
3.619683	0.089700
-0.481250	0.415100
0.662233	0.378000
2.780733	0.210900
-0.194233	0.401800
13.246850	-0.298900
8.900267	-0.042200
-3.263117	0.697200
-0.733650	0.543800
3.403000	0.293900
-1.139417	0.556500
-4.706100	0.784400
4.232433	0.264300
5.688083	0.326100
1.016650	0.624500
15.338950	-0.245800
9.747200	0.105200
22.588000	-0.661900
15.860517	-0.260300
7.362717	0.228400
7.033517	0.266800
-2.803400	0.974600
8.287650	0.307400
-1.887033	0.933400
1.730917	0.708400
10.232733	0.232800
18.148183	-0.168900
7.038200	0.485300
12.078633	0.221400
11.876567	0.239500
6.088050	0.578600
16.991550	-0.034900
19.569750	-0.096400
11.440617	0.357100
11.643483	0.328800
17.582950	0.009500
18.187450	0.017600
13.756433	0.280800
12.040567	0.414400
10.460700	0.517700
11.539450	0.464000
16.354217	0.169900
17.673617	0.153100
11.224383	0.543300
17.140900	0.261200
14.522800	0.402200
8.951267	0.721300
6.403100	0.871100
16.129167	0.429100
15.386483	0.438300
9.966917	0.782500
14.364900	0.531200
14.202533	0.544500
19.911833	0.278700
12.075017	0.746200
11.214217	0.824200
16.178917	0.522700
20.546367	0.238600
18.777817	0.366100
21.912233	0.264300
14.266433	0.757500
13.675917	0.802000
17.289917	0.600700
29.523200	-0.143800
9.645717	1.032700
10.401217	1.012600
16.886767	0.650200
25.708317	0.124900
19.143267	0.516700
19.006983	0.559500
15.919817	0.772900
23.156417	0.355600
24.209083	0.294600
20.679433	0.534000
19.412617	0.588400
21.323433	0.548400
22.602533	0.490800
26.288017	0.289600
26.386400	0.301400
25.342533	0.407400
25.313550	0.377900
22.195917	0.599200
29.588517	0.242500
29.942867	0.217300
35.154900	-0.087400
25.596933	0.484800
26.866333	0.416100
22.670800	0.654200
21.237233	0.792000
28.813667	0.356500
33.492233	0.065400
31.102367	0.221500
34.394850	0.124100
19.429567	0.985000
32.770217	0.215800
29.278383	0.447300
27.955417	0.537700
22.194383	0.897900
25.965967	0.691300
33.333300	0.278900
40.195183	-0.103800
32.197467	0.358300
35.227400	0.243500
28.706933	0.687000
28.748417	0.704800
32.868800	0.465500
35.276150	0.319700
33.056567	0.447400
37.294750	0.220100
35.955367	0.377200
29.162383	0.808200
33.291883	0.559800
32.531083	0.617100
30.520617	0.771100
35.846650	0.462800
36.444317	0.435400
30.684833	0.806700
22.806250	1.280300
34.692467	0.583300
27.589767	0.988000
32.358467	0.731800
38.310783	0.460500
37.088750	0.522800
22.129633	1.429800
31.040400	0.920900
38.990983	0.506700
35.920400	0.708800
42.554833	0.349500
42.513850	0.362600
37.214700	0.678200
34.810350	0.813500
41.160083	0.478500
37.258633	0.735900
33.690183	0.963300
36.581900	0.809000
35.573983	0.889800
34.180383	0.990600
40.781217	0.590200
40.523217	0.691300
38.750467	0.801100
43.211133	0.555000
47.011250	0.309200
47.624567	0.340300
40.352733	0.781800
47.695167	0.396100
50.795717	0.205000
37.439767	0.949600
42.236883	0.683100
42.277867	0.761800
41.803667	0.821800
52.081650	0.193100
34.936450	1.256000
44.168867	0.730300
47.175000	0.572900
55.075083	0.177300
45.698633	0.739200
48.449317	0.567700
55.687983	0.120900
53.052167	0.304000
51.277333	0.497700
49.330017	0.574300
48.028583	0.738000
49.935017	0.619900
50.853683	0.545100
49.566333	0.604200
61.189700	0.027500
53.742400	0.476600
55.449850	0.345200
57.781117	0.225100
43.221783	1.142400
61.207600	0.116300
57.715267	0.355600
58.473633	0.295800
54.400633	0.513000
58.181483	0.307800
49.704250	0.830300
57.562567	0.417400
54.323800	0.641000
54.026583	0.686100
56.941267	0.480700
57.420383	0.480000
56.595583	0.552900
54.763167	0.735100
60.506767	0.410500
56.055667	0.691300
57.329867	0.608200
59.835183	0.473700
60.159167	0.418600
62.620000	0.393800
58.726367	0.616900
60.295133	0.535800
57.308717	0.702700
80.235550	-0.598900
63.153900	0.446300
63.292767	0.438400
63.606367	0.400000
74.310083	-0.168900
66.657000	0.277400
62.365467	0.556300
62.465133	0.588900
64.480433	0.510900
61.695750	0.663800
51.659067	1.276000
64.124283	0.544500
57.737400	0.958100
63.549050	0.619100
65.895383	0.491400
60.427683	0.815400
56.032483	1.070100
59.527250	0.952400
65.778817	0.602500
62.244067	0.856900
64.248267	0.772000
66.005883	0.657000
64.233633	0.790200
61.091183	1.081800
68.655083	0.636000
62.326167	1.044100
66.720267	0.783100
70.832267	0.538900
70.055950	0.561500
63.485133	1.092000
69.400167	0.713500
67.346783	0.842700
61.651383	1.173900
64.190350	1.112900
74.970683	0.512400
74.884883	0.534000
68.367017	0.928900
72.917200	0.647300
71.782117	0.697600
75.695000	0.490400
69.795433	0.859200
65.446133	1.126200
75.828700	0.527000
69.890950	0.918200
75.140133	0.600900
85.308083	0.008400
76.417567	0.599200
75.472283	0.657900
85.604917	0.070900
76.958050	0.592700
73.132850	0.922100
78.786950	0.588800
78.695883	0.646500
75.652183	0.796200
78.643783	0.654900
80.998083	0.495000
79.080733	0.711000
83.499967	0.439600
80.554817	0.599500
84.974283	0.350700
85.234883	0.453600
84.063500	0.517100
85.572567	0.430000
86.520900	0.382400
80.531050	0.812000
81.712283	0.725400
89.846900	0.235400
82.502183	0.669000
84.248683	0.604200
91.403817	0.235000
89.329167	0.326800
91.577150	0.215600
86.751417	0.515200
87.414600	0.564800
92.312967	0.294100
95.748033	0.091500
94.633917	0.137800
97.589483	-0.026700
96.357950	0.060200
84.758417	0.782500
86.333117	0.712300
94.874267	0.235000
90.735783	0.467100
85.875017	0.754300
88.951800	0.589700
86.529267	0.853900
82.940167	1.025800
98.706850	0.098600
94.093017	0.398800
92.661967	0.554200
89.865550	0.762800
78.202317	1.459300
85.480333	1.044300
89.196550	0.854300
90.659383	0.775200
92.143850	0.735500
91.595117	0.825100
94.714333	0.636300
91.507633	0.854400
96.647517	0.581200
95.413700	0.659300
95.082583	0.667500
97.444750	0.623900
91.263050	0.989000
93.237000	0.880100
95.589367	0.713800
94.287267	0.886000
95.465217	0.846100
97.235317	0.792700
98.020100	0.715100
91.978167	1.088500
96.532117	0.835300
99.662167	0.754300
94.407250	1.064000
104.023933	0.492000
97.731317	0.885100
98.965267	0.851500
103.836217	0.602800
95.935000	1.080200
101.295617	0.770800
108.391100	0.349700
110.278183	0.242700
113.343967	0.057400
103.923533	0.643200
103.310917	0.670300
109.722667	0.346000
104.194150	0.647300
105.284833	0.619800
102.719217	0.748600
111.126800	0.305300
102.323600	0.815000
103.480017	0.769300
99.510450	1.007300
110.317150	0.388400
111.469467	0.338200
109.798117	0.541000
110.311183	0.522900
118.466733	0.046200
109.858867	0.560200
106.913517	0.769000
110.232833	0.566100
109.671333	0.660900
110.120867	0.669700
104.790150	0.996200
109.541900	0.734000
106.744850	0.912500
110.077550	0.780500
113.589667	0.576700
107.411483	0.992700
117.601883	0.396900
112.139633	0.722100
119.669017	0.275800
111.502317	0.887500
113.609917	0.745900
105.799933	1.204200
105.554283	1.246500
112.342267	0.916900
111.324067	0.967600
120.761033	0.483600
113.477150	0.939800
122.005717	0.418600
113.665433	0.935700
113.144550	1.041200
122.210633	0.533400
120.981900	0.638900
117.556183	0.831000
114.179467	1.036000
116.499500	0.921500
118.302283	0.838200
121.915783	0.650100
119.711050	0.809000
115.932900	1.029800
119.061250	0.860000
122.915983	0.707100
111.294667	1.422400
114.456283	1.285800
118.658633	1.020000
124.551483	0.706200
119.075717	1.031800
119.879150	1.086500
124.295733	0.842700
127.831767	0.695500
120.474517	1.098700
124.116250	0.886100
121.552483	1.032600
126.196467	0.826600
131.516933	0.541800
110.667417	1.840000
121.621150	1.207100
120.292367	1.282300
130.646883	0.674100
125.387717	1.022800
123.457533	1.227600
129.034100	0.875600
128.932967	0.899800
136.097767	0.480700
136.235600	0.569900
137.871683	0.453300
130.002700	0.927800
121.132967	1.479700
127.263333	1.221900
133.846900	0.812000
130.092233	1.071600
132.806633	0.885900
141.647567	0.417400
134.353200	0.848000
134.573617	0.832900
130.466967	1.032700
134.693017	0.910000
135.508583	0.867300
131.407017	1.098700
133.901533	0.973200
133.742283	1.035900
141.784033	0.542100
134.028217	1.027000
132.250367	1.178200
146.238217	0.366100
138.022367	0.863800
128.930183	1.455600
130.750867	1.383700
134.381700	1.175600
133.145683	1.326000
133.233700	1.307600
137.842617	1.015900
136.204500	1.123700
139.801517	1.037500
140.474900	0.983000
131.942833	1.507500
141.812783	0.899400
154.548733	0.207600
147.093633	0.663600
129.950167	1.717300
142.773617	0.970600
146.363317	0.745000
143.701867	0.906700
133.854883	1.617900
144.119950	0.995000
156.509750	0.261200
153.325750	0.443900
145.316783	1.015800
151.777917	0.712300
159.754033	0.229800
150.996083	0.729600
142.724850	1.205300
150.388767	0.807400
151.858667	0.767800
148.392583	0.965400
149.342800	0.922100
155.820350	0.630500
163.172850	0.193700
147.068050	1.117400
148.183900	1.074200
148.035550	1.193000
146.878950	1.290800
152.150533	1.000800
152.556417	0.999700
159.959167	0.580600
157.244933	0.734100
151.953233	1.082100
161.441417	0.526300
162.978267	0.457900
152.580467	1.059100
155.537250	0.884300
155.006500	0.931400
166.062600	0.250700
156.792983	0.837600
157.908217	0.885400
159.279733	0.831900
155.629150	1.078100
164.357200	0.577700
162.156133	0.710400
155.886850	1.101800
162.158417	0.740500
159.003617	0.935200
157.757417	1.027000
154.888583	1.259400
165.446350	0.609200
155.491400	1.226300
152.729467	1.386100
160.541400	0.957800
158.067867	1.146400
152.717450	1.530500
157.679033	1.220700
158.835350	1.169900
153.920100	1.485800
164.925500	0.918800
161.925800	1.084700
163.925917	1.027000
165.333083	0.942300
158.137517	1.391500
170.168850	0.667400
172.485167	0.589600
163.575683	1.163400
164.969383	1.152900
163.117117	1.240900
169.302150	0.899600
167.403783	1.022400
161.695083	1.473900
171.358733	0.893100
172.164117	0.834700
165.611767	1.221100
160.242367	1.586500
172.243533	0.940800
161.036933	1.619700
174.983967	0.845500
175.610317	0.794800
175.749917	0.783400
175.127467	0.832900
175.997300	0.882500
176.684683	0.855900
186.703100	0.271700
174.886183	0.991500
173.460417	1.069600
175.745817	0.930100
175.724433	1.003200
179.631567	0.800200
169.234733	1.467600
176.837883	0.979500
179.141850	0.852500
179.084300	0.918800
176.360100	1.078100
164.786417	1.795600
172.217900	1.357400
176.074833	1.143900
180.906817	0.868000
178.465583	1.091100
173.857617	1.371400
178.329617	1.147600
181.704333	0.939300
181.777483	0.940800
175.972333	1.264800
173.767100	1.484600
181.782550	1.073600
191.742167	0.459400
184.059967	0.909400
173.411317	1.600300
184.492583	0.973200
175.713750	1.550000
178.759667	1.353700
183.444950	1.084700
189.715817	0.722200
194.197017	0.518200
187.810367	0.939400
192.385017	0.711400
185.448417	1.136500
184.126767	1.219600
183.334817	1.243600
187.001200	1.069700
181.015400	1.459700
187.909550	1.088300
192.113783	0.806700
190.286167	0.931000
183.110367	1.402600
188.285833	1.123800
189.848033	1.030800
189.090033	1.093200
193.820867	0.829600
187.831100	1.185200
194.291300	0.879500
192.196600	1.045400
195.410200	0.893300
192.720283	1.035300
189.690800	1.225700
186.907650	1.382900
197.657067	0.889900
197.225017	0.878500
190.707267	1.291000
189.130617	1.394800
198.182133	0.918300
190.909800	1.379300
200.535483	0.788400
198.445100	0.946400
197.062817	1.027000
197.676817	0.987700
194.228183	1.267500
196.330950	1.201400
199.208467	1.053700
196.492500	1.247300
201.506233	0.948300
195.482433	1.311000
198.177950	1.202300
192.754833	1.598400
197.577733	1.299000
202.958283	1.040400
200.028017	1.219900
210.239767	0.602200
200.650950	1.136300
196.471317	1.435000
195.497817	1.523800
200.647500	1.245500
198.150083	1.393500
190.067450	1.945400
188.854517	2.092900
189.569683	2.118000
195.363183	1.757100
196.843767	1.635400
194.874833	1.805700
201.207017	1.448500
204.121750	1.305800
203.340617	1.392700
207.035733	1.209000
206.848167	1.230400
204.367617	1.360600
208.531050	1.126700
204.297267	1.382200
200.324650	1.667600
212.777083	1.031400
209.060300	1.266200
211.066683	1.166700
210.613817	1.210600
208.795850	1.359500
215.002400	0.992000
210.747283	1.239300
219.963717	0.673300
214.759483	1.110900
211.667917	1.302700
201.395617	1.933300
206.762367	1.591600
209.036967	1.522300
206.971517	1.709500
211.167667	1.525300
213.014750	1.406300
208.907283	1.649400
213.763217	1.383700
216.841083	1.251300
222.245967	0.982600
220.966050	1.055300
225.196533	0.827700
224.762550	0.852200
219.477467	1.165600
224.704033	0.830700
226.819133	0.838800
232.276500	0.508400
224.852300	0.959900
209.043417	1.885600
215.583317	1.505200
216.980700	1.439300
223.497400	1.145000
222.059550	1.265900
215.740067	1.663900
228.390200	0.941000
220.371900	1.440500
220.228417	1.464700
221.601133	1.415100
225.595517	1.180000
233.589300	0.677300
226.076983	1.149000
222.010717	1.477300
226.316983	1.284300
226.344233	1.293000
227.218750	1.258400
231.245533	1.009500
238.435500	0.588500
234.854967	0.847900
241.484583	0.480900
236.335533	0.788700
223.528450	1.573400
228.060317	1.320700
222.140050	1.679900
237.748167	0.764800
233.438467	1.155700
229.570100	1.379900
228.512117	1.465000
225.206233	1.663200
230.852150	1.438700
234.588017	1.243600
235.098950	1.278800
233.333750	1.354700
231.099117	1.514800
234.872100	1.297700
228.029067	1.829500
242.796317	0.926800
239.341317	1.147600
234.656417	1.415800
240.830883	1.140000
240.467567	1.158400
238.745533	1.296900
248.075283	0.764100
246.981417	0.809500
238.559517	1.317700
241.249250	1.205300
249.047333	0.827100
247.503217	0.901900
236.778533	1.577400
242.707600	1.255700
243.620450	1.197500
239.937383	1.397700
243.864617	1.183300
252.232983	0.675600
244.082983	1.163400
237.857850	1.517600
251.554867	0.875500
233.828383	2.005200
245.712717	1.352200
254.423583	0.842400
248.204883	1.197600
244.843067	1.391500
253.624817	1.001800
250.224733	1.173300
255.521133	0.859200
253.150750	1.017800
247.203183	1.499100
249.181417	1.352200
252.238500	1.179500
250.742500	1.304600
250.772367	1.299700
260.987283	0.675600
256.891967	0.922900
251.595700	1.251200
242.895683	1.766100
252.427233	1.244700
250.746550	1.360100
256.127367	1.053700
244.218283	1.759800
250.646883	1.490400
252.344317	1.386100
254.726567	1.312900
253.076317	1.426300
257.009617	1.221100
255.022217	1.337800
261.424267	0.949900
261.353100	0.947300
266.420350	0.820700
260.709000	1.144400
255.171100	1.475000
255.560917	1.433500
250.386250	1.799300
254.358050	1.579700
260.474817	1.221100
262.257833	1.139100
263.157083	1.089000
259.250067	1.322800
259.195717	1.441000
255.746700	1.739000
264.442600	1.211300
263.815833	1.273500
265.106767	1.177600
267.544367	1.025500
266.452100	1.078100
259.929050	1.466900
258.510717	1.612000
263.970317	1.491700
261.595017	1.638400
260.947000	1.682600
271.054317	1.086100
257.785133	1.884900
258.070917	1.859200
260.738433	1.715700
265.242950	1.447400
259.538800	2.049800
262.697383	1.884900
269.818400	1.494500
266.664567	1.660300
263.319350	1.949300
272.985450	1.407800
264.936400	1.887200
266.414850	1.817300
264.729583	1.928400
267.002117	1.786000
263.004333	2.069700
268.747217	1.780600
276.518133	1.305000
266.898817	1.884100
273.743417	1.470400
270.041683	1.701600
286.932400	0.698300
275.450817	1.379800
272.855967	1.591000
273.484200	1.773800
278.556433	1.496400
278.729633	1.482000
275.018867	1.716100
274.622617	1.746100
277.895750	1.541000
266.495250	2.226500
265.202333	2.354400
270.812617	2.226400
278.715900	1.779500
284.872600	1.426400
279.397467	1.780300
291.640500	1.123700
294.899217	0.970900
290.730717	1.231600
285.198000	1.533800
282.297517	1.712800
282.796800	1.702100
284.720867	1.676200
293.528533	1.216500
291.437633	1.324200
288.279233	1.527900
285.487850	1.735100
292.011817	1.313500
293.150833	1.252500
294.518933	1.167600
290.689500	1.441400
291.839783	1.560600
290.053350	1.707500
292.886450	1.519400
281.802850	2.172800
289.815900	1.714100
286.203867	1.922200
291.284867	1.631800
294.397367	1.464100
295.470767	1.596700
289.870133	1.962900
294.200700	1.725200
296.995600	1.550600
303.121133	1.161000
298.935217	1.392400
302.939433	1.146600
299.966400	1.323800
296.630683	1.732800
303.432967	1.366000
301.248667	1.544500
302.678050	1.465400
299.624433	1.653300
296.271200	1.862300
299.110050	1.796000
300.773417	1.731100
303.902300	1.547000
309.440950	1.208000
309.480517	1.211500
311.111417	1.130200
304.536583	1.538400
314.798817	0.966700
301.956417	1.716100
304.329600	1.588700
304.693767	1.555000
303.882417	1.663000
309.056533	1.353600
314.848317	1.045000
302.840100	1.754300
305.605500	1.604600
308.399017	1.461700
306.042317	1.716400
309.278050	1.549400
314.323667	1.257100
313.489400	1.311500
314.747517	1.320700
317.599183	1.183800
312.695067	1.506100
311.658917	1.543600
306.866167	1.828300
305.565300	1.916000
311.727050	1.631600
313.001217	1.681600
306.916850	2.037500
313.481450	1.671800
318.862900	1.372400
317.398250	1.582400
318.357117	1.536400
316.636800	1.637600
315.910183	1.670400
312.363733	1.896000
314.066533	1.788600
321.231667	1.501000
324.675483	1.306200
321.693083	1.507200
320.422467	1.559800
316.505933	1.836600
313.575500	2.017700
309.997400	2.387600
324.064417	1.565200
312.569667	2.271100
323.078550	1.651400
329.763750	1.257800
329.285967	1.264600
326.753917	1.383700
318.211183	1.907100
325.162383	1.761300
332.483650	1.333700
326.001483	1.729800
320.196100	2.059100
326.177783	1.752900
327.766050	1.749200
325.861817	1.868800
329.039833	1.699800
333.826900	1.416800
335.024583	1.349100
338.773617	1.168600
326.746367	1.996600
334.504400	1.557500
334.617567	1.546000
335.554583	1.497300
332.486100	1.784900
330.654367	1.910800
337.314033	1.507200
332.596667	1.778800
332.790717	1.775500
337.191917	1.524400
327.349483	2.111400
337.458200	1.517000
327.868767	2.100700
331.837567	1.861000
339.339567	1.506100
336.399800	1.710200
332.702517	1.952200
340.604217	1.493500
343.405267	1.341700
337.637083	1.668000
