#Y dist(nm)	Y force(pN)
0.000000	1.131900
4.657650	0.854700
2.233200	1.000800
8.624617	0.593900
10.500967	0.467300
-2.054733	1.064600
1.413050	0.622800
5.825683	0.344500
4.916850	0.370200
-0.319117	0.597700
-5.995383	0.844700
-9.409750	1.033500
-13.656000	1.284900
-8.534650	0.978600
4.399383	0.185500
-6.983250	0.867600
-8.758267	0.975700
-9.541667	0.985900
-0.070917	0.133600
-10.458567	0.732100
-8.731700	0.564600
-8.309400	0.506400
-8.304083	0.467300
-11.054933	0.617900
-11.555333	0.654200
-13.193567	0.746200
-4.704417	0.203500
-13.413467	0.712300
-13.662883	0.731300
-13.049783	0.673100
-20.463783	0.946100
-23.123883	0.989000
-28.500233	1.287800
-15.568333	0.487700
-13.866917	0.368800
-16.721450	0.526800
-12.320067	0.239500
-15.309200	0.400200
-16.000100	0.200400
-26.649683	0.746900
-21.756783	0.426800
-26.486667	0.685000
-31.123683	0.970100
-29.580150	0.868500
-25.356517	0.617200
-30.063400	0.883800
-30.049067	0.871300
-36.071717	1.149100
-27.792400	0.645000
-23.785017	0.376600
-27.333867	0.555700
-25.649950	0.357900
-27.015350	0.399600
-35.314300	0.815100
-33.154333	0.682100
-34.830633	0.757100
-38.029767	0.936100
-34.441833	0.666200
-28.673583	0.303800
-28.086333	0.233300
-34.231700	0.572700
-35.041583	0.605300
-33.811417	0.508900
-35.046483	0.596900
-34.981150	0.552000
-36.285633	0.521900
-36.086733	0.314300
-38.537550	0.424500
-40.179167	0.474700
-31.881683	-0.030700
-37.049250	0.259500
-41.399067	0.520900
-48.843233	0.951200
-41.469483	0.446600
-54.012017	0.926500
-50.955433	0.738500
-47.568983	0.541400
-48.158567	0.539200
-47.586583	0.369800
-39.318683	-0.188200
-51.448450	0.527700
-57.263667	0.864100
-56.603733	0.831200
-55.057550	0.739800
-45.766600	0.007500
-52.793867	0.340600
-63.549817	0.964900
-54.116900	0.431700
-56.297433	0.546200
-61.674567	0.839800
-49.891450	0.138000
-52.172233	0.251300
-56.693617	0.418600
-65.597500	0.782400
-56.844433	0.254000
-58.759050	0.329400
-55.839150	0.179100
-61.600617	0.520300
-61.215033	0.482900
-57.995183	0.284000
-61.411850	0.460500
-66.714417	0.653200
-68.771317	0.782200
-67.142267	0.655900
-61.910167	0.329800
-58.687800	-0.024000
-65.392550	0.339600
-71.392983	0.677300
-65.616233	0.317600
-70.233400	0.566100
-72.739567	0.701200
-70.346533	0.410600
-73.378283	0.521600
-70.104833	0.313700
-72.942733	0.433700
-73.558633	0.473900
-65.663650	-0.009300
-71.017050	0.242400
-67.209383	-0.022000
-73.590150	0.327000
-78.781917	0.612700
-75.613667	0.412900
-74.529267	0.309100
-73.760067	0.273100
-70.648217	0.040900
-78.533033	0.426200
-80.319050	0.318000
-77.134800	0.091800
-77.002867	0.065200
-77.686083	0.066800
-83.265067	0.355600
-81.379150	0.249900
-83.417933	0.336500
-87.331900	0.549000
-89.317900	0.396600
-87.438800	0.259500
-97.633033	0.853400
-99.831683	0.992900
-102.912400	1.184400
-98.155617	0.908800
-95.334700	0.715200
-91.200633	0.464300
-97.489117	0.531400
-100.731867	0.739900
-99.643917	0.657400
-98.079917	0.571300
-104.521000	0.827700
-101.818667	0.648100
-99.899367	0.533200
-99.366017	0.492700
-93.258900	0.046200
-97.170850	0.197700
-95.213000	0.055200
-99.925467	0.334000
-90.804633	-0.223900
-104.087317	0.550900
-99.507567	0.270100
-103.731083	0.491300
-105.018367	0.566800
-103.801133	0.493100
-103.889433	0.415400
-109.531533	0.509300
-111.181183	0.587900
-111.776917	0.625900
-115.216433	0.830600
-112.127500	0.644700
-110.661750	0.548700
-105.187483	0.224000
-106.543333	0.303200
-106.510483	0.140000
-110.133417	0.315100
-101.423350	-0.223200
-114.928017	0.566800
-109.540983	0.161600
-116.004900	0.533100
-112.655183	0.307400
-119.396617	0.682000
-109.492400	0.028200
-116.130667	0.323500
-118.254200	0.440400
-114.502517	0.181300
-118.948433	0.392000
-118.674900	0.340200
-117.126333	0.237800
-117.055417	0.210100
-116.439800	0.160800
-123.859017	0.582700
-124.059383	0.607400
-128.791300	0.893100
-130.683950	1.008000
-120.068667	0.376600
-121.590867	0.454900
-123.725283	0.585800
-129.915733	0.943100
-137.458100	1.181400
-134.210400	0.955500
-135.276400	1.011300
-125.547117	0.412300
-135.209567	0.915400
-132.537700	0.716400
-128.138167	0.397600
-130.207317	0.484000
-134.148633	0.698600
-133.233883	0.617900
-134.071533	0.507800
-135.148350	0.503700
-140.070667	0.758200
-133.814750	0.360900
-136.705933	0.506000
-130.644650	0.127200
-138.782500	0.576900
-138.371683	0.536900
-140.627783	0.605300
-142.355933	0.628400
-147.177817	0.906700
-140.911050	0.502500
-134.623533	0.103100
-146.135333	0.695900
-136.170167	0.037000
-149.899200	0.800400
-153.434300	1.006800
-146.293400	0.561000
-144.854417	0.459700
-155.571350	0.933900
-154.935250	0.861000
-146.374433	0.324800
-146.769917	0.329800
-151.051017	0.549700
-143.982400	0.129300
-158.668633	0.968000
-156.351550	0.815100
-157.835033	0.922100
-148.530700	0.336300
-147.759533	0.222800
-168.285933	1.444100
-160.310083	0.677600
-157.518217	0.365500
-160.328483	0.470300
-169.684633	0.989900
-160.054250	0.402900
-159.446283	0.358100
-158.123900	0.263700
-162.403433	0.476900
-158.955767	0.278200
-161.470967	0.408100
-163.227950	0.456000
-167.314417	0.623800
-162.111233	0.282200
-167.117517	0.550600
-174.516950	0.976200
-170.326067	0.696100
-163.386867	0.275800
-169.482900	0.633600
-169.969333	0.649400
-163.891133	0.047900
-168.137700	0.209400
-171.791917	0.408700
-166.975800	0.071700
-181.502733	0.894800
-167.621333	0.089000
-161.490917	-0.341900
-171.367300	0.250200
-175.613733	0.260600
-172.233583	-0.001600
-182.544667	0.539200
-169.568183	-0.256300
-186.972333	0.729800
-175.173167	0.012100
-177.408183	0.086900
-171.338783	-0.311800
-176.803767	-0.026600
-183.447483	0.320900
-183.705400	0.319800
-180.858917	0.126100
-175.546433	-0.224500
-185.440950	0.209700
-187.638917	0.329800
-189.759017	0.433300
-196.401983	0.797000
-176.905083	-0.457300
-189.020367	0.203500
-186.051000	-0.056100
-184.038750	-0.176100
-193.401983	0.364400
-191.558017	0.252100
-198.814950	0.534000
-195.348017	0.307300
-197.605983	0.415100
-192.880817	0.143200
-201.632783	0.605000
-192.605117	0.051400
-199.911183	0.464000
-207.293917	0.885700
-193.172450	0.046200
-196.068317	0.211300
-200.000650	0.375900
-208.932633	0.818600
-201.265433	0.338900
-197.733100	0.109800
-200.707817	0.260500
-207.399733	0.613700
-205.442317	0.504400
-206.452717	0.454000
-208.839483	0.573800
-205.060033	0.304700
-207.743933	0.443900
-207.737967	0.439000
-204.545767	0.244900
-208.171400	0.300900
-209.024600	0.350100
-212.554550	0.543300
-213.211617	0.564400
-214.546300	0.522900
-213.972650	0.460500
-223.589117	1.027000
-216.025617	0.555700
-213.428267	0.364000
-212.532917	0.340300
-215.437517	0.425800
-213.887917	0.285100
-215.478900	0.300600
-213.970783	0.194600
-218.137217	0.441100
-215.436717	0.266800
-220.489050	0.477300
-220.431167	0.368500
-224.588583	0.596900
-224.038883	0.531500
-214.797500	-0.044100
-226.923833	0.552500
-218.333467	-0.015500
-224.634783	0.303200
-223.033850	0.218400
-227.872633	0.473900
-224.405600	0.238200
-224.763517	0.136000
-227.723967	0.286300
-229.408583	0.325700
-235.684417	0.690100
-231.474250	0.421500
-228.021500	0.219300
-238.951583	0.728000
-229.590950	0.156300
-230.710167	0.206200
-230.481350	0.166200
-226.777533	-0.127900
-232.705900	0.100800
-235.720900	0.259500
-235.256917	0.168100
-243.002883	0.615800
-235.246050	0.148500
-235.415517	0.097900
-229.506900	-0.338700
-235.375183	-0.038500
-236.388100	-0.014700
-238.454283	0.098600
-243.591850	0.364800
-242.063583	0.261200
-241.301883	0.161600
-248.131100	0.533100
-252.901700	0.827700
-248.592833	0.568700
-232.493750	-0.453300
-240.695583	0.011900
-242.613217	0.061900
-246.806567	0.320500
-243.335667	0.105700
-245.866933	0.208100
-239.850883	-0.334600
-233.854533	-0.663700
-246.745917	0.061900
-244.405750	-0.102000
-253.812683	0.292700
-257.572883	0.542000
-247.982667	-0.060200
-253.092217	0.235000
-255.777817	0.346000
-247.620033	-0.157000
-244.357567	-0.376700
-249.356133	-0.089500
-248.273900	-0.174600
-250.442350	-0.186000
-257.488633	0.222800
-255.510500	0.076200
-260.351250	0.357300
-258.915367	0.132100
-252.179700	-0.283500
-259.590400	0.088200
-269.400467	0.683500
-265.299117	0.438100
-263.923183	0.320900
-262.066283	0.094100
-261.007683	-0.018700
-259.128583	-0.184600
-254.240517	-0.506000
-260.464233	-0.139000
-260.319533	-0.135700
-279.324267	0.866200
-272.612917	0.440200
-270.091133	0.282200
-273.478800	0.480900
-268.237850	0.079200
-268.782550	0.050100
-277.081833	0.525200
-271.203250	0.120900
-275.111533	0.360200
-268.140500	-0.068100
-269.760467	0.024700
-271.619367	0.052600
-270.054067	-0.043700
-286.568217	0.930700
-272.602917	0.087700
-271.613117	0.023500
-272.641917	0.061900
-270.825833	-0.216100
-271.928567	-0.172100
-271.275517	-0.269300
-276.970433	0.064700
-276.799133	-0.051400
-274.685683	-0.236200
-278.724883	-0.057700
-270.245583	-0.558400
-278.965733	-0.066100
-290.803750	0.635400
-291.078533	0.622700
-284.070933	0.161600
-280.745283	-0.022000
-280.004967	-0.111500
-279.801233	-0.142600
-281.729367	-0.121100
-285.355683	0.073100
-287.020083	0.089600
-287.865217	0.120400
-292.621067	0.375700
-296.650950	0.603000
-292.229250	0.226500
-292.661433	0.218600
-293.934233	0.211100
-291.925050	0.097800
-291.564250	0.046800
-288.933650	-0.116400
-291.198200	-0.084900
-296.961000	0.223500
-282.355767	-0.709100
-295.313350	0.039000
-301.877750	0.371400
-292.255350	-0.168900
-297.536717	0.091900
-300.558217	0.238300
-293.729000	-0.222000
-301.210517	0.190300
-296.790300	-0.098400
-288.081967	-0.612500
-301.620650	0.154800
-292.088017	-0.436700
-298.243767	-0.069200
-299.948650	-0.007800
-294.023350	-0.381300
-296.720050	-0.431100
-307.038383	0.149300
-303.050083	-0.086200
-299.914500	-0.281400
-302.760750	-0.104100
-300.640217	-0.246800
-292.344350	-0.784800
-306.075433	0.035000
-298.410750	-0.462600
-300.859567	-0.312200
-312.756567	0.601000
-303.561950	0.116100
-305.114267	0.256000
-302.583967	0.105100
-297.670017	-0.179300
-300.285467	-0.037100
-299.039033	-0.015400
-302.153033	0.214700
-301.837883	0.250700
-304.364483	0.381200
-300.969250	0.174300
-295.455533	-0.152500
-300.180383	0.194600
-294.972567	-0.062000
-297.261583	0.090200
-298.357800	0.172500
-297.349317	0.093400
-290.355883	-0.313900
-292.456967	-0.200300
-295.539200	0.119100
-287.532333	-0.375400
-286.189583	-0.467800
-284.590200	-0.589200
-291.540333	-0.120100
-299.052983	0.311900
-297.353217	0.203500
-290.712950	-0.150900
-284.524367	-0.521600
-287.701417	-0.359300
-290.852433	-0.132400
-293.934083	0.079400
-294.724433	0.211400
-300.040850	0.490200
-292.618317	0.065200
-294.720983	0.205100
-281.684167	-0.546500
-283.405167	-0.428900
-294.070600	0.208800
-296.900317	0.394300
-292.134667	0.200500
-290.858417	0.191500
-295.895250	0.517800
-286.405100	-0.010800
-288.124817	0.102400
-298.614433	0.713900
-289.949033	0.203900
-286.643983	0.059000
-284.268617	-0.092600
-276.730233	-0.508000
-288.388667	0.201100
-282.323667	-0.139100
-286.817000	0.115200
-286.392450	0.157800
-288.319167	0.273700
-276.843933	-0.376000
-275.464917	-0.461000
-286.815983	0.271100
-282.955933	0.057500
-278.442900	-0.156600
-284.615017	0.231700
-277.603617	-0.179300
-276.889767	-0.210200
-278.763783	-0.026500
-280.887317	0.136000
-281.246350	0.187800
-279.782933	0.110300
-279.772817	0.142600
-274.343517	-0.181400
-286.051167	0.560200
-277.684267	0.129100
-274.038783	-0.054100
-270.007017	-0.310100
-267.343367	-0.488000
-278.117700	0.219300
-278.641333	0.270200
-276.032967	0.166000
-274.336217	0.064300
-273.109667	-0.009200
-272.513583	-0.058300
-273.016617	0.133600
-272.764883	0.148100
-264.384983	-0.309400
-271.472117	0.138400
-269.952233	0.058400
-272.877167	0.225700
-266.700650	-0.056700
-264.663417	-0.147200
-273.584267	0.418600
-273.759167	0.419200
-275.392400	0.532500
-271.078633	0.281000
-266.965767	0.079900
-261.276250	-0.191100
-267.159933	0.162500
-263.813417	-0.048200
-264.045317	-0.016700
-263.136900	0.014100
-270.248483	0.486800
-265.070767	0.226600
-263.262617	0.108100
-263.850433	0.149300
-255.810717	-0.327800
-253.572350	-0.346500
-255.100500	-0.246900
-265.982117	0.399400
-264.074433	0.273800
-264.175383	0.292700
-263.444367	0.245800
-259.206100	0.156300
-251.544450	-0.352200
-252.439483	-0.357700
-258.036350	0.025800
-256.340633	-0.007600
-258.238067	0.178600
-264.778533	0.606200
-256.121683	0.097100
-260.409100	0.329100
-255.445450	0.025200
-254.267067	-0.037700
-249.308183	-0.262600
-248.191367	-0.356900
-252.788833	-0.059200
-263.457050	0.601500
-249.890500	-0.192900
-254.833350	0.057600
-256.689100	0.337500
-252.905383	0.110300
-245.287750	-0.350700
-260.737500	0.559500
-262.071933	0.790700
-261.173033	0.786500
-247.704133	0.024200
-244.982300	-0.160500
-245.018667	-0.204500
-250.481083	0.131000
-251.229500	0.278400
-257.780733	0.719900
-239.961083	-0.284200
-250.206750	0.340200
-250.218567	0.342400
-246.712533	0.109100
-247.457767	0.298000
-244.468833	0.134000
-247.864733	0.342200
-249.567800	0.435000
-249.003350	0.463500
-245.294567	0.319600
-243.218717	0.226300
-243.787667	0.235000
-239.358733	-0.003100
-237.535933	-0.118300
-239.668517	0.011200
-250.090067	0.743200
-243.339800	0.387900
-238.952583	0.144800
-239.329900	0.177300
-244.008850	0.461100
-243.581217	0.438100
-239.223083	0.284000
-244.439033	0.638300
-234.585267	0.047200
-235.870517	0.125500
-234.781017	0.124900
-230.912300	-0.054600
-211.766517	-1.196900
-223.537717	-0.497300
-231.828550	-0.009300
-227.504150	-0.290100
-235.291717	0.233500
-235.474683	0.307400
-229.007867	-0.071600
-236.467283	0.394400
-222.606500	-0.444900
-232.240300	0.138000
-235.766033	0.353000
-238.028950	0.614400
-226.271367	-0.098900
-225.771600	-0.124800
-232.834183	0.293600
-230.696317	0.236800
-230.428667	0.221200
-239.639017	0.803200
-230.314367	0.275200
-223.318200	-0.123900
-231.688900	0.373800
-224.033583	-0.033400
-223.904167	-0.006800
-239.099983	0.911600
-225.285600	0.131700
-221.576433	-0.106600
-224.497050	0.088500
-230.466617	0.511000
-226.045467	0.316600
-217.288667	-0.216800
-228.357517	0.458200
-214.980983	-0.328300
-216.777567	-0.118700
-227.094767	0.534700
-218.146183	0.030500
-217.963300	0.020700
-221.364733	0.222800
-224.565717	0.423100
-218.042900	0.155100
-213.331333	-0.108700
-220.079433	0.314900
-222.490300	0.455700
-217.016450	0.147000
-221.973017	0.435100
-216.588350	0.222600
-218.544900	0.370800
-220.265900	0.481500
-222.830283	0.666500
-215.212633	0.184100
-224.170750	0.730800
-219.633617	0.600400
-210.163750	0.058200
-217.379517	0.488800
-214.292967	0.299500
-216.316683	0.565400
-210.780100	0.244200
-209.089083	0.134600
-211.638667	0.277000
-209.163200	0.181800
-207.584450	0.174000
-215.425500	0.665100
-211.376483	0.431000
-209.985483	0.363500
-205.596867	0.068200
-201.152133	-0.199300
-209.081267	0.322900
-205.772317	0.135400
-210.417650	0.464700
-209.118617	0.376600
-210.301850	0.438600
-208.061250	0.349500
-200.454917	0.001600
-204.265367	0.246700
-199.008933	-0.018100
-200.562550	0.088500
-200.777700	0.101100
-190.971000	-0.512400
-204.225833	0.365300
-206.716517	0.559000
-198.196150	0.027000
-199.110600	0.098100
-196.990267	0.051400
-199.084250	0.187800
-210.168100	0.848700
-202.589717	0.462400
-206.024300	0.675600
-198.851067	0.268900
-199.335900	0.318900
-200.354450	0.482700
-197.455700	0.331200
-193.547833	0.117200
-194.611583	0.173600
-196.313100	0.273000
-197.628500	0.358800
-190.834883	-0.035800
-194.413517	0.176500
-194.191050	0.138000
-193.325417	0.135400
-188.023550	0.015000
-185.481317	-0.143000
-181.095417	-0.334100
-190.342600	0.214800
-190.142400	0.187800
-191.885000	0.265800
-185.610433	0.007400
-184.012617	-0.063200
-187.205767	0.205300
-187.923733	0.236900
-193.769500	0.574200
-188.297200	0.264300
-195.375167	0.784000
-189.579417	0.515200
-190.955150	0.598500
-187.315850	0.389700
-183.229033	0.167600
-187.189317	0.418600
-195.769950	0.920400
-191.815233	0.738500
-186.178850	0.399600
-175.419717	-0.230600
-182.064133	0.153200
-174.987167	-0.157100
-186.560400	0.556800
-184.403683	0.454400
-186.418250	0.556500
-181.552767	0.378400
-175.649733	0.059600
-178.876017	0.252100
-179.579267	0.267100
-180.055817	0.277000
-184.546633	0.575900
-178.292700	0.206700
-182.742667	0.463600
-185.718817	0.792700
-175.189500	0.322500
-181.767933	0.711500
-176.093600	0.393000
-176.252583	0.408800
-173.809633	0.265700
-174.525400	0.336300
-173.521833	0.424100
-177.809550	0.701100
-169.959450	0.219300
-177.085983	0.646400
-169.321717	0.184000
-174.251750	0.466200
-170.991900	0.250200
-171.236883	0.291800
-160.961683	-0.009400
-169.377583	0.458600
-168.844533	0.430400
-173.691533	0.725000
-164.210733	0.264500
-172.075183	0.763400
-164.060817	0.327700
-162.578517	0.244300
-169.656567	0.670300
-161.995900	0.216000
-162.800517	0.360100
-161.356617	0.280900
-157.127683	0.021500
-158.064600	0.067800
-165.170500	0.483600
-166.186433	0.564200
-172.076900	0.907800
-165.875350	0.564300
-175.407983	1.225400
-163.162533	0.690800
-164.230767	0.762100
-161.395850	0.588000
-162.245750	0.662700
-159.876017	0.514000
-160.724083	0.571100
-161.484467	0.624700
-158.467267	0.448300
-160.330883	0.826400
-158.765650	0.740700
-156.508683	0.596900
-154.017000	0.441300
-152.749000	0.416100
-149.741033	0.248300
-154.535783	0.527000
-153.180683	0.416000
-157.306100	0.679500
-158.672833	0.769100
-153.757133	0.638900
-151.666467	0.526600
-148.625833	0.343700
-155.887317	0.779200
-150.300000	0.463200
-153.677000	0.655500
-150.128117	0.437800
-151.135167	0.477400
-149.452783	0.458300
-152.794850	0.862500
-146.371900	0.483900
-142.907267	0.289600
-142.437183	0.248300
-139.022750	0.029700
-148.554233	0.617000
-142.104050	0.238200
-152.587450	0.867900
-137.470300	0.258900
-141.373817	0.486100
-145.267950	0.707100
-143.370267	0.599200
-144.356417	0.774400
-138.483767	0.463000
-148.858367	1.052200
-140.500350	0.559500
-139.454233	0.505700
-138.590817	0.449500
-138.625567	0.585700
-136.444100	0.533400
-137.216417	0.562000
-139.549517	0.712300
-139.962233	0.728000
-142.461683	0.880700
-136.158567	0.530500
-138.435517	0.684700
-129.037050	0.192600
-133.011967	0.574000
-132.161900	0.544500
-132.423033	0.539900
-129.444550	0.341100
-134.611467	0.643600
-134.219850	0.639600
-133.949300	0.626400
-137.294450	0.832200
-131.772583	0.679700
-130.158367	0.594700
-133.335467	0.847000
-130.609700	0.686100
-126.793900	0.561600
-124.613667	0.448000
-113.348167	-0.242300
-131.908567	0.863500
-138.741000	1.297500
-138.041717	1.262800
-127.793083	0.761300
-122.520500	0.512400
-122.484400	0.525000
-128.271317	0.881500
-132.193817	1.117900
-132.628967	1.150900
-120.845650	0.471000
-116.202767	0.186700
-124.649400	0.707100
-122.782117	0.687400
-119.686083	0.491300
-115.410300	0.243300
-118.604317	0.439600
-124.016683	0.755600
-117.446317	0.364000
-117.949700	0.400800
-118.285817	0.478000
-108.927367	0.135400
-117.633767	0.647500
-118.715967	0.723400
-113.978833	0.449300
-117.051500	0.774600
-111.424433	0.441800
-106.314633	0.151100
-119.853200	0.964800
-116.977000	0.802200
-117.709867	0.837100
-118.756000	1.050600
-110.149850	0.574800
-115.759000	0.918600
-109.969967	0.592300
-95.242817	-0.302600
-105.855050	0.364800
-109.886433	0.567500
-116.484617	0.965200
-121.603583	1.530500
-108.829100	0.804900
-109.072350	0.838200
-105.316550	0.608700
-102.790400	0.474000
-104.945483	0.621800
-108.580500	0.853200
-102.804200	0.513000
-104.736183	0.643700
-102.913317	0.540400
-107.857483	0.825800
-100.288733	0.521000
-106.194200	0.902400
-97.667900	0.404400
-99.773050	0.529500
-96.057283	0.332600
-101.657600	0.654600
-103.490983	0.776600
-96.614033	0.368600
-98.291533	0.759500
-101.751067	0.975100
-104.702350	1.152900
-101.343917	0.966400
-102.484633	1.113200
-103.878883	1.214000
-103.247450	1.186800
-91.340583	0.477200
-89.537100	0.371400
-93.915967	0.625300
-95.477417	0.720700
-100.099250	1.007100
-86.100667	0.289000
-94.504533	0.964100
-89.542467	0.697300
-90.168983	0.715400
-88.023083	0.612200
-82.342133	0.389900
-80.205817	0.277000
-84.536883	0.535700
-89.667650	0.819000
-93.038633	1.028900
-78.965783	0.214400
-88.559317	0.787000
-82.200467	0.403600
-92.607883	1.013000
-88.091250	0.740700
-88.860450	0.918600
