#Y dist(nm)	Y force(pN)
3754.673450	20.007500
3762.894100	19.525100
3767.565017	19.270900
3765.975550	19.376300
3774.789767	18.945100
3770.233517	19.238500
3775.351450	19.016300
3770.169900	19.359500
3776.457850	19.022600
3768.862883	19.497300
3767.561617	19.753600
3767.834883	19.811100
3781.376033	19.107600
3780.690300	19.160000
3776.570600	19.428200
3781.445200	19.155800
3782.972633	19.251600
3784.993917	19.148200
3781.035183	19.423800
3785.768233	19.155000
3794.445850	18.674300
3781.963350	19.454900
3783.236250	19.417700
3778.817800	19.713800
3785.869883	19.363500
3783.265717	19.505800
3782.843333	19.613700
3777.179133	20.110800
3784.602800	19.733300
3779.899100	20.099300
3772.968433	20.573100
3792.979250	19.418600
3791.058533	19.571700
3799.600200	19.196300
3797.046000	19.380800
3801.987550	19.165700
3804.870450	18.966200
3803.940683	19.027800
3804.537883	19.020600
3797.314033	19.599900
3803.806750	19.271600
3798.201917	19.695700
3794.132850	19.984400
3793.464917	20.039800
3804.579217	19.393300
3801.900067	19.636300
3803.100033	19.589100
3801.831133	19.690200
3799.795600	19.835000
3805.702417	19.586800
3803.045883	19.815900
3813.378850	19.234400
3812.225733	19.333500
3806.608733	19.705200
3808.158867	19.627600
3800.059750	20.138900
3812.057267	19.615300
3805.800367	20.021800
3809.146217	19.849600
3811.693083	19.727400
3806.166650	20.143100
3804.678000	20.264300
3820.044633	19.423500
3820.509200	19.385900
3813.628550	19.825100
3821.414417	19.389400
3821.829483	19.522800
3814.563283	20.030400
3813.865733	20.155500
3816.568167	19.984300
3819.716200	19.840400
3812.785067	20.280100
3822.275917	19.930000
3822.806717	19.897900
3816.689550	20.323400
3821.651517	20.015200
3831.870950	19.487000
3831.701383	19.602900
3837.926267	19.263100
3835.992467	19.442200
3837.974100	19.341200
3832.891567	19.647400
3827.284150	19.999400
3841.946067	19.310200
3838.305450	19.539200
3833.238300	19.835600
3840.722883	19.405500
3838.312433	19.680600
3844.269450	19.354700
3838.291800	19.772600
3836.619867	19.878400
3837.576333	19.853100
3844.101600	19.470800
3835.389033	20.134500
3835.441883	20.172000
3835.762367	20.238400
3840.343667	19.976800
3842.686467	19.852000
3840.810933	19.992300
3839.043050	20.272700
3842.008917	20.141800
3841.582350	20.209700
3843.744517	20.057800
3846.053683	19.992000
3846.932600	20.053400
3855.623817	19.554100
3860.053833	19.323900
3851.952800	19.835600
3843.034833	20.388900
3848.410267	20.082100
3856.424400	19.619000
3853.333250	19.843100
3855.615950	19.849100
3854.476983	19.939500
3852.409367	20.081200
3850.382333	20.216100
3845.218067	20.691100
3851.517983	20.352000
3850.995167	20.354800
3852.642883	20.276700
3855.713233	20.125800
3857.243683	20.056500
3862.237400	19.783100
3862.743683	19.771500
3862.992517	19.780300
3860.716783	19.911900
3862.507317	19.636300
3854.966867	19.944100
3855.470817	19.940500
3854.876133	19.960800
3858.012233	19.748400
3860.341050	19.570100
3854.616967	19.933000
3855.874683	19.848900
3861.350217	19.511200
3858.329183	19.608900
3846.860450	20.288000
3855.522300	19.765400
3854.144683	19.850400
3856.555000	19.750100
3861.942217	19.422100
3856.450617	19.573300
3848.545050	20.040500
3845.008633	20.248200
3853.733933	19.744200
3845.410233	20.227800
3844.328133	20.297100
3847.503650	19.933700
3852.932550	19.546700
3852.067567	19.583800
3848.648467	19.792900
3847.310767	19.902700
3845.800083	19.992900
3849.865917	19.728100
3841.018867	20.267800
3842.052033	20.008200
3836.488567	20.244700
3842.783883	19.879200
3844.334333	19.773300
3843.240750	19.850600
3841.480133	19.962600
3843.123717	19.877500
3844.193867	19.816900
3842.571217	19.897600
3836.446600	20.154800
3833.086317	20.369200
3836.778883	20.137800
3844.450400	19.623500
3835.011533	20.084100
3836.117583	20.035800
3838.516717	19.886800
3843.315717	19.592800
3834.844650	19.964600
3842.843733	19.460400
3843.658967	19.410400
3838.328050	19.757600
3827.856717	20.229700
3835.433917	19.773400
3834.273717	19.833700
3837.762550	19.631000
3830.040417	20.002000
3833.161867	19.799200
3833.362667	19.779400
3832.829850	19.816700
3834.780267	19.680700
3834.173533	19.709700
3833.586733	19.742100
3830.022050	19.956800
3833.571933	19.747500
3832.820617	19.787800
3832.752450	19.638200
3825.416433	19.865700
3829.195033	19.603500
3832.244550	19.411400
3822.322850	20.008700
3826.337383	19.634400
3825.559350	19.683500
3828.161133	19.525800
3821.563167	19.946200
3833.930633	19.066500
3825.796783	19.502400
3825.396850	19.498700
3822.256467	19.719400
3823.517733	19.657200
3823.762367	19.642900
3818.642100	19.864400
3823.295883	19.584900
3835.424900	18.881000
3828.444033	19.275900
3825.607383	19.434300
3821.894000	19.648400
3813.038233	20.040900
3820.277417	19.535200
3823.212983	19.329300
3821.965150	19.404800
3821.519367	19.381300
3813.401700	19.747100
3814.687100	19.653500
3807.989650	20.048900
3812.548700	19.792700
3812.484150	19.793000
3819.791600	19.338800
3814.591417	19.465300
3813.965750	19.496000
3807.416467	19.888600
3809.297450	19.764200
3810.138867	19.686100
3812.794333	19.530000
3817.277033	19.261200
3816.368783	19.306200
3807.879817	19.654600
3812.809733	19.344600
3802.474767	19.944400
3809.065900	19.520900
3800.541467	19.969300
3812.013233	19.257000
3805.620200	19.605500
3807.884267	19.446700
3806.536467	19.523500
3803.349633	19.710900
3805.336383	19.553400
3801.494550	19.672100
3806.082783	19.384500
3805.437217	19.410700
3806.544183	19.354800
3805.416100	19.383800
3801.722183	19.620900
3802.773300	19.572200
3802.121367	19.564600
3795.981050	19.806200
3799.726783	19.568100
3807.445567	19.083400
3811.079817	18.829300
3804.451600	19.174700
3804.924800	19.123700
3803.277017	19.209100
3805.452167	19.054900
3801.622933	18.921600
3795.760317	19.250800
3797.466900	19.154300
3796.609950	19.195700
3799.296133	18.913200
3799.682733	18.853200
3791.183933	19.355100
3790.034300	19.407500
3786.001667	19.644700
3788.800600	19.487600
3788.885333	19.361400
3797.154133	18.783300
3788.331883	19.301400
3792.239067	19.042300
3799.445117	18.601300
3792.230300	19.033100
3793.472500	18.948800
3786.808183	19.350300
3789.738567	19.159600
3784.829833	19.163400
3788.903950	18.891500
3786.359200	19.037600
3786.065000	19.061600
3788.320867	18.853000
3783.067800	19.147700
3784.684183	19.014900
3779.304200	19.337300
3780.343217	19.248100
3781.324267	19.170100
3784.020800	19.002500
3782.483667	19.097500
3776.882750	19.277900
3787.680883	18.590400
3787.773567	18.568000
3779.832000	19.056500
3783.647050	18.731300
3777.147217	19.052500
3779.468883	18.924600
3775.928933	19.134000
3776.515633	19.084800
3776.136583	19.092600
3777.216233	18.989100
3781.392200	18.697400
3779.912467	18.769300
3771.538900	19.195700
3774.318917	19.024600
3771.905817	19.174000
3779.503300	18.666800
3772.853350	18.924800
3776.194317	18.742000
3770.806417	18.988000
3770.863100	18.991100
3775.011367	18.736300
3770.357100	19.013900
3769.405483	18.939300
3766.797383	19.076100
3762.732600	19.288400
3774.718583	18.574200
3769.827200	18.737000
3764.789550	18.963800
3766.987233	18.755100
3761.151800	19.126100
3773.748900	18.364400
3765.051883	18.904800
3762.836617	18.953500
3763.247483	18.807600
3768.872250	18.438200
3763.625767	18.724900
3767.912283	18.444900
3763.332517	18.681700
3762.884600	18.670400
3758.868067	18.799300
3761.031017	18.659200
3757.007567	18.907600
3759.565767	18.686200
3756.360333	18.786000
3755.086550	18.875300
3754.618267	18.852700
3750.314483	19.117800
3758.081067	18.662800
3759.637717	18.554200
3760.461833	18.364500
3753.267900	18.785300
3751.438767	18.852100
3750.854167	18.863800
3757.329350	18.474500
3760.201000	18.319400
3757.082333	18.401700
3756.430567	18.399100
3745.581533	19.008600
3744.898733	19.062600
3749.929333	18.765000
3754.303183	18.496800
3751.537567	18.477100
3747.725167	18.737200
3750.755700	18.555800
3746.897100	18.750800
3746.252833	18.742200
3753.035783	18.249600
3748.588417	18.501700
3747.161900	18.504800
3741.938867	18.814300
3745.232217	18.627400
3752.052600	18.212300
3741.735367	18.685900
3746.498383	18.410400
3750.191967	18.208300
3751.781850	18.108500
3744.737133	18.462000
3744.864100	18.428300
3742.378800	18.518300
3744.338000	18.418700
3740.130567	18.654700
3745.041950	18.357200
3747.644400	18.168500
3739.107833	18.664800
3734.649200	18.916700
3739.401650	18.616400
3740.771933	18.482400
3737.054983	18.723600
3738.926900	18.560300
3733.352817	18.854800
3730.080600	19.039100
3735.371717	18.608200
3728.325717	19.010800
3732.539067	18.762100
3733.481650	18.695300
3737.728383	18.287400
3732.174050	18.602300
3727.798633	18.875400
3730.943750	18.698900
3719.956533	19.283100
3720.814000	19.212500
3728.373733	18.777600
3722.919350	19.100600
3732.981167	18.352000
3728.253233	18.606900
3731.922550	18.344300
3730.451167	18.426100
3731.067950	18.322400
3730.098583	18.369600
3733.298467	18.164200
3725.367700	18.629900
3723.930383	18.621000
3725.844133	18.401100
3721.325500	18.641600
3718.372317	18.776800
3717.780217	18.806800
3724.828967	18.368200
3723.932733	18.411900
3723.156150	18.321200
3719.814967	18.519700
3717.886117	18.655000
3723.501983	18.312900
3715.559383	18.666300
3720.092000	18.341600
3716.587317	18.483700
3715.175150	18.576800
3721.878733	18.178200
3708.205883	18.989400
3715.954917	18.368800
3711.260983	18.606000
3714.089333	18.404700
3708.138933	18.732000
3711.295850	18.542000
3709.325267	18.685000
3707.228317	18.660700
3715.915450	18.134900
3706.561583	18.685200
3709.202133	18.536100
3709.840283	18.458400
3716.321883	17.964000
3709.133350	18.373700
3712.635700	18.121100
3713.597050	18.056600
3707.543750	18.424700
3708.092933	18.388800
3712.612583	18.038100
3714.688967	17.889700
3711.570867	18.015100
3703.454733	18.492000
3702.930900	18.506000
3705.863867	18.327100
3706.916783	18.095400
3702.991683	18.301200
3697.859517	18.589600
3698.966700	18.525800
3695.638067	18.607600
3690.863733	18.831000
3697.968967	18.367000
3698.274183	18.315600
3697.958650	18.343400
3696.850417	18.392500
3692.130933	18.625200
3691.238533	18.645600
3692.178017	18.559300
3692.383317	18.515200
3688.533617	18.736900
3693.549900	18.458900
3692.211167	18.484300
3695.396567	18.157900
3688.097983	18.578400
3692.401917	18.322000
3696.253167	18.072400
3685.592267	18.603700
3685.991417	18.565600
3689.287833	18.297900
3702.229100	17.499800
3695.278600	17.868200
3697.702167	17.707000
3684.481233	18.368700
3685.340033	18.294900
3690.550083	17.942100
3695.648017	17.606500
3684.979800	18.253400
3690.632117	17.911000
3684.783833	18.096900
3681.409450	18.293000
3689.589200	17.805800
3682.863683	18.200400
3680.599783	18.216600
3680.930533	18.125700
3677.432017	18.320200
3681.607867	18.052900
3674.724867	18.487600
3681.536000	18.064100
3680.866467	18.096700
3674.915517	18.346000
3676.304600	18.248300
3671.462750	18.493700
3669.801567	18.630700
3680.417267	17.965900
3678.369750	18.087200
3682.562917	17.666200
3670.972217	18.350200
3677.030817	17.976700
3672.049733	18.250800
3678.257650	17.781500
3677.399500	17.785100
3676.269517	17.828500
3672.711467	18.020200
3676.620167	17.760700
3664.367183	18.504000
3664.484450	18.407300
3666.964917	18.233500
3664.186817	18.354700
3676.278650	17.581400
3674.795017	17.667100
3665.266967	18.226000
3673.216600	17.712800
3662.333700	18.243200
3665.901850	18.025700
3664.719517	18.086500
3660.526733	18.347700
3664.228617	17.986900
3657.456917	18.365500
3656.854850	18.407900
3659.525217	18.226600
3665.017850	17.924300
3668.914467	17.695600
3665.492483	17.694900
3658.546417	18.040600
3654.481700	18.262100
3655.219483	18.201900
3651.498033	18.411000
3658.845950	17.969600
3656.253200	18.095300
3662.433683	17.700600
3659.295467	17.837200
3660.165733	17.790000
3661.735483	17.698200
3654.601783	18.126900
3652.701917	18.214900
3658.791650	17.736200
3654.420667	17.992000
3659.082817	17.739100
3661.429167	17.587000
3659.697267	17.525800
3651.976600	17.972600
3645.169583	18.332400
3651.801617	17.928400
3651.809583	17.919000
3649.131600	18.090500
3653.030050	17.784200
3648.812683	17.975400
3645.230700	18.180800
3649.245933	17.935500
3649.061083	17.815200
3650.491533	17.658900
3640.126983	18.196500
3645.331117	17.910700
3639.856233	18.267300
3647.706600	17.762300
3641.985133	18.096900
3644.932717	17.914300
3644.846167	17.748100
3647.973217	17.561200
3644.039850	17.781200
3639.924350	17.979500
3641.035250	17.892500
3640.297383	17.822700
3646.263600	17.458700
3640.034617	17.789200
3634.981300	18.100100
3635.163600	18.111500
3630.206550	18.400400
3637.794983	17.782200
3641.290750	17.567000
3640.381100	17.598200
3640.178833	17.597700
3635.164567	17.858200
3637.209667	17.709400
3642.973117	17.278600
3638.748067	17.515900
3628.008433	18.167700
3625.734167	18.301600
3633.380550	17.783000
3627.003600	18.068300
3634.044767	17.624800
3633.503383	17.610300
3629.402617	17.825500
3631.595050	17.666000
3629.754683	17.769000
3623.821350	17.974100
3631.832450	17.483600
3631.618783	17.494200
3630.103667	17.576500
3632.722283	17.264100
3632.276317	17.233300
3635.042517	17.020300
3626.120683	17.563800
3629.334567	17.383900
3634.749717	17.030800
3624.564017	17.526400
3622.020533	17.627400
3625.896817	17.349400
3614.671883	18.033900
3629.027317	17.182300
3626.132383	17.358300
3626.347217	17.263600
3618.774633	17.628000
3625.945483	17.171100
3620.282983	17.538900
3620.611200	17.439800
3616.585483	17.587200
3619.025783	17.427600
3620.420067	17.310700
3626.462983	16.955700
3615.154183	17.605200
3618.404933	17.384400
3621.449283	17.091600
3613.216450	17.580200
3610.934150	17.640800
3615.548333	17.358600
3615.948933	17.329800
3611.098383	17.630100
3613.680767	17.404300
3614.860267	17.319100
3606.851667	17.754400
3613.930633	17.354700
3612.542700	17.456300
3604.273100	17.945600
3598.864917	18.123100
3611.979050	17.341400
3609.329533	17.498400
3608.929700	17.516600
3609.189617	17.377900
3616.277683	16.889100
3604.074500	17.560100
3603.604267	17.563600
3606.774883	17.377200
3616.319533	16.817700
3610.104283	17.154900
3609.348800	17.032400
3597.540833	17.740800
3608.311050	17.054900
3597.162217	17.702800
3597.730333	17.658900
3597.656550	17.684300
3595.866200	17.717600
3591.886200	17.944100
3608.714850	16.936100
3603.704800	17.243000
3594.634267	17.656900
3591.449333	17.782800
3595.114233	17.517300
3595.681300	17.487200
3596.421667	17.456800
3594.967433	17.545800
3599.638900	17.129900
3592.865250	17.493200
3593.038983	17.454300
3595.467767	17.256100
3596.035917	17.218300
3586.908200	17.763500
3592.182517	17.411500
3586.869083	17.592000
3581.856217	17.887900
3588.575233	17.496300
3590.525500	17.334500
3591.039483	17.185500
3592.340350	17.080700
3588.280400	17.284100
3583.569883	17.557800
3580.642833	17.708700
3584.016983	17.527800
3580.698283	17.544900
3578.131667	17.680600
3583.639583	17.346300
3592.116967	16.819300
3584.790583	17.104500
3579.446000	17.382200
3577.041567	17.451400
3582.916400	17.105900
3583.328517	17.079700
3578.721817	17.378800
3583.632067	16.964800
3578.746417	17.198200
3569.083167	17.748100
3580.013367	17.090500
3576.887383	17.262300
3577.761717	17.196400
3573.392767	17.391400
3572.785217	17.447800
3567.655117	17.695600
3574.143800	17.349500
3574.573917	17.290000
3569.742483	17.453700
3574.591000	17.141900
3574.578383	17.113800
3570.553500	17.378300
3571.706317	17.298700
3565.101733	17.654400
3565.038283	17.501100
3562.206967	17.682100
3565.396483	17.475300
3561.627050	17.683700
3563.087750	17.455700
3567.602533	17.198400
3568.748433	17.069700
3561.015367	17.505100
3563.912400	17.257700
3571.468650	16.830800
3565.938883	17.145600
3562.757867	17.329000
3560.142817	17.365600
3553.164233	17.738700
3554.254083	17.682000
3549.885567	17.889700
3556.931083	17.470800
3556.401083	17.496900
3558.927567	17.299900
3556.533717	17.329300
3559.429217	17.133700
3557.685583	17.236500
3567.223467	16.649800
3560.295417	16.927900
3558.799567	16.987900
3547.453083	17.628300
3550.777500	17.431100
3541.433083	17.996700
3546.272517	17.701300
3550.460167	17.345500
3547.874617	17.486500
3556.172517	16.956100
3553.994450	17.091800
3556.758183	16.934700
3562.794717	16.559800
3544.946783	17.538300
3552.291117	17.077300
3544.764350	17.501600
3546.407333	17.409900
3541.045800	17.587700
3547.463383	17.135700
3552.451617	16.825900
3552.358467	16.786300
3550.552267	16.885900
3549.559817	16.948900
3548.194100	17.002400
3547.625433	16.917600
3555.031800	16.434200
3549.560567	16.711300
3557.761450	16.206800
3545.602800	16.931600
3547.557983	16.808700
3533.597533	17.565000
3537.944467	17.322700
3551.658750	16.475300
3546.802500	16.747100
3543.627117	16.844800
3542.901450	16.855700
3534.674400	17.277800
3539.169283	17.008200
3538.401267	17.034700
3547.599233	16.486500
3545.720067	16.497700
3542.593983	16.602900
3541.572733	16.583700
3548.209600	16.173500
3536.068767	16.880200
3541.413333	16.551600
3530.418400	17.155400
3528.602267	17.175400
3529.766133	17.099700
3529.463783	17.134800
3535.496917	16.756300
3521.264717	17.493400
3520.059300	17.560100
3535.311833	16.593300
3526.802267	17.093500
3531.378700	16.813700
3535.838600	16.545200
3533.678750	16.595900
3528.373683	16.888800
3531.202383	16.683900
3526.975650	16.901900
3527.000667	16.871500
3524.132500	17.038700
3529.847150	16.524200
3528.355567	16.588900
3536.733000	16.065500
3531.221900	16.391600
3518.891567	16.993600
3522.000317	16.762000
3522.831117	16.650400
3523.324750	16.612700
3513.010433	17.224500
3515.792217	17.057500
3522.761867	16.598500
3511.610633	17.199300
3514.370317	16.994800
3510.810533	17.134800
3514.182233	16.920000
3512.863117	17.011300
3509.606083	17.217900
3520.131967	16.529500
3522.025567	16.386100
3513.073650	16.900100
3513.048183	16.897500
3517.452317	16.481200
3508.063500	17.021300
3511.285950	16.784900
3511.917650	16.725800
3508.335850	16.940300
3509.757250	16.845200
3499.765900	17.262500
3508.271800	16.759400
3509.293283	16.672800
3511.782767	16.523800
3505.290767	16.807000
3499.694817	17.086600
3505.936000	16.648700
3505.147383	16.676700
3511.190633	16.279500
3510.612183	16.303500
3500.869500	16.817300
3503.004383	16.584300
3493.350050	17.138000
3498.693967	16.775500
3496.490517	16.909600
3499.117167	16.762000
3497.553400	16.863200
3500.114767	16.564000
3495.237750	16.804700
3485.919800	17.330600
3501.142767	16.414300
3497.499850	16.535300
3493.296817	16.779700
3486.391467	17.091700
3488.985750	16.937900
3497.604300	16.425200
3492.639100	16.722800
3485.731350	16.992800
3485.184433	17.016000
3485.992317	16.977100
3500.661817	16.086700
3491.330317	16.468300
3481.683850	17.035400
3490.319200	16.502600
3486.518900	16.709600
3491.681333	16.368600
3485.524133	16.735500
3488.779650	16.532000
3489.764700	16.480100
3487.433833	16.553700
3482.348483	16.742400
3479.174700	16.927100
3480.973183	16.828200
3481.775750	16.777400
3486.852750	16.334300
3486.131300	16.364300
3478.595767	16.743100
3478.345983	16.750800
3480.467933	16.602600
3477.322283	16.817100
3485.261183	16.217100
3478.089067	16.615900
3465.187767	17.321500
3472.458767	16.890100
3471.747917	16.939600
3475.393933	16.721400
3487.383867	15.941200
3476.580150	16.581200
3476.798450	16.587200
3478.152117	16.496500
3475.135100	16.631900
3476.930583	16.470000
3470.020817	16.874800
3470.854733	16.797000
3471.160683	16.778100
3481.547350	16.161800
3479.590667	16.186600
3474.539767	16.383700
3472.207483	16.500600
3473.471683	16.378200
3466.155850	16.819700
3465.348467	16.840000
3474.726017	16.273000
3467.501317	16.543000
3462.320350	16.829900
3472.955467	16.189000
3463.489217	16.749400
3468.650450	16.324100
3461.036650	16.733300
3456.279033	16.989300
3463.401517	16.563400
3473.405033	15.939000
3464.596700	16.462700
3463.208333	16.370400
3462.034983	16.421700
3460.326533	16.520700
3467.640833	16.074600
3459.028300	16.545200
3458.221550	16.473800
3457.796633	16.501500
3455.374567	16.609600
3454.611683	16.644000
3458.862750	16.399400
3458.325250	16.412300
3460.258700	16.190000
3452.223133	16.644000
3458.149050	16.235600
3458.922500	16.172300
3455.404950	16.349000
3454.015867	16.440100
3448.634550	16.699100
3445.735700	16.859900
3448.902617	16.599400
3444.359167	16.883200
3452.110500	16.424600
3452.651700	16.379900
